# # SAMPLE - One Arm Scans
FTS 150 GHz source w/circula4 feedhorn and 150 GHz diode detector w/ 
rect feedhorn and no circ - rect transition; 

SAMPLE:15-02 #607, 608 etalon with 2.25" spacing. Cut out of region of high reflectance.

Sample aligned with x-polarization.






# Center Position 388.300000
# half-wdth 220.000000
# speed, mm/s 2.000000
# SRS time constant: 0.030000 sec
# SRS filter slope: 6 dB/octave
# SRS filt sync on/off: ON
# SRS input mode: AC
# SRS input shield: GND
# SRS sensitivity: 5.000000E-4 volts
# SRS input reserve mode: 2
# SRS sample rate: 256.000000 Hz
# index  time   encoder   signal
# DATA
0 640300720.000000 168.022000 9.63514e-005
1 640300800.000000 168.174000 9.6262e-005
2 640300880.000000 168.331500 9.63514e-005
3 640300960.000000 168.485500 9.63812e-005
4 640301040.000000 168.639000 9.63812e-005
5 640301120.000000 168.795000 9.62918e-005
6 640301200.000000 168.947500 9.6262e-005
7 640301280.000000 169.105000 9.63216e-005
8 640301360.000000 169.259500 9.62024e-005
9 640301440.000000 169.412500 9.62322e-005
10 640301520.000000 169.568000 9.62024e-005
11 640301600.000000 169.722500 9.62024e-005
12 640301680.000000 169.877000 9.62918e-005
13 640301760.000000 170.031000 9.62024e-005
14 640301840.000000 170.185000 9.62024e-005
15 640301920.000000 170.340000 9.61428e-005
16 640302000.000000 170.496000 9.61428e-005
17 640302080.000000 170.650500 9.61428e-005
18 640302160.000000 170.803000 9.61428e-005
19 640302240.000000 170.958500 9.61428e-005
20 640302320.000000 171.116000 9.61428e-005
21 640302400.000000 171.270000 9.6113e-005
22 640302480.000000 171.427000 9.61726e-005
23 640302560.000000 171.587000 9.59341e-005
24 640302640.000000 171.739000 9.59341e-005
25 640302720.000000 171.896000 9.58149e-005
26 640302800.000000 172.047500 9.59937e-005
27 640302880.000000 172.205000 9.59937e-005
28 640302960.000000 172.363000 9.60832e-005
29 640303040.000000 172.516000 9.61428e-005
30 640303120.000000 172.672000 9.6113e-005
31 640303200.000000 172.828000 9.61726e-005
32 640303280.000000 172.981500 9.61726e-005
33 640303360.000000 173.138000 9.61726e-005
34 640303440.000000 173.293000 9.62024e-005
35 640303520.000000 173.447500 9.61428e-005
36 640303600.000000 173.600500 9.60832e-005
37 640303680.000000 173.752000 9.60534e-005
38 640303760.000000 173.913000 9.60235e-005
39 640303840.000000 174.065500 9.60832e-005
40 640303920.000000 174.221500 9.59937e-005
41 640304000.000000 174.378000 9.60534e-005
42 640304080.000000 174.528500 9.60235e-005
43 640304160.000000 174.686000 9.60534e-005
44 640304240.000000 174.841500 9.60534e-005
45 640304320.000000 174.994000 9.59639e-005
46 640304400.000000 175.151500 9.59937e-005
47 640304480.000000 175.306000 9.59341e-005
48 640304561.000000 175.460500 9.60235e-005
49 640304640.000000 175.617000 9.59639e-005
50 640304720.000000 175.770000 9.59341e-005
51 640304800.000000 175.926000 9.59043e-005
52 640304880.000000 176.081000 9.58149e-005
53 640304960.000000 176.238000 9.59043e-005
54 640305040.000000 176.392500 9.58745e-005
55 640305120.000000 176.546500 9.57553e-005
56 640305200.000000 176.704000 9.58149e-005
57 640305280.000000 176.858500 9.57255e-005
58 640305360.000000 177.014500 9.57851e-005
59 640305440.000000 177.171500 9.58149e-005
60 640305520.000000 177.322500 9.57255e-005
61 640305600.000000 177.482000 9.57553e-005
62 640305680.000000 177.634000 9.56659e-005
63 640305760.000000 177.791000 9.57255e-005
64 640305840.000000 177.945500 9.56361e-005
65 640305920.000000 178.098000 9.57851e-005
66 640306000.000000 178.256500 9.57553e-005
67 640306080.000000 178.411500 9.56361e-005
68 640306160.000000 178.563000 9.57553e-005
69 640306240.000000 178.717500 9.57255e-005
70 640306320.000000 178.874000 9.56957e-005
71 640306400.000000 179.031500 9.56659e-005
72 640306480.000000 179.184500 9.56659e-005
73 640306560.000000 179.338500 9.56063e-005
74 640306640.000000 179.493500 9.55765e-005
75 640306720.000000 179.647000 9.55765e-005
76 640306800.000000 179.803500 9.55765e-005
77 640306880.000000 179.957500 9.55765e-005
78 640306960.000000 180.112500 9.56361e-005
79 640307040.000000 180.270000 9.55169e-005
80 640307120.000000 180.423000 9.56063e-005
81 640307200.000000 180.577500 9.54573e-005
82 640307280.000000 180.734000 9.53679e-005
83 640307360.000000 180.886000 9.52189e-005
84 640307440.000000 181.041500 9.52189e-005
85 640307520.000000 181.198000 9.51891e-005
86 640307600.000000 181.351500 9.52189e-005
87 640307680.000000 181.509500 9.53679e-005
88 640307760.000000 181.665500 9.54871e-005
89 640307840.000000 181.820500 9.54871e-005
90 640307920.000000 181.977000 9.55765e-005
91 640308000.000000 182.133000 9.55169e-005
92 640308080.000000 182.287000 9.55467e-005
93 640308160.000000 182.441500 9.55169e-005
94 640308240.000000 182.593500 9.55765e-005
95 640308320.000000 182.755500 9.55765e-005
96 640308400.000000 182.908500 9.54573e-005
97 640308480.000000 183.068000 9.55169e-005
98 640308560.000000 183.220000 9.55169e-005
99 640308640.000000 183.378000 9.55169e-005
100 640308720.000000 183.532500 9.55169e-005
101 640308800.000000 183.683000 9.54573e-005
102 640308880.000000 183.840000 9.55169e-005
103 640308960.000000 183.994500 9.54871e-005
104 640309040.000000 184.149500 9.54275e-005
105 640309120.000000 184.305500 9.54573e-005
106 640309200.000000 184.457000 9.54275e-005
107 640309280.000000 184.614500 9.54275e-005
108 640309360.000000 184.771000 9.53083e-005
109 640309440.000000 184.922500 9.53679e-005
110 640309520.000000 185.079500 9.52785e-005
111 640309600.000000 185.232500 9.52487e-005
112 640309680.000000 185.387500 9.52487e-005
113 640309760.000000 185.544000 9.51593e-005
114 640309840.000000 185.699000 9.52487e-005
115 640309920.000000 185.853000 9.52189e-005
116 640310000.000000 186.007500 9.52189e-005
117 640310080.000000 186.161500 9.51891e-005
118 640310160.000000 186.321000 9.50997e-005
119 640310240.000000 186.472500 9.51891e-005
120 640310320.000000 186.627000 9.50997e-005
121 640310400.000000 186.785000 9.51593e-005
122 640310480.000000 186.939500 9.51593e-005
123 640310560.000000 187.096500 9.50997e-005
124 640310640.000000 187.248500 9.50699e-005
125 640310720.000000 187.407000 9.50699e-005
126 640310800.000000 187.564000 9.50699e-005
127 640310880.000000 187.716500 9.50997e-005
128 640310960.000000 187.874000 9.50401e-005
129 640311040.000000 188.028500 9.50699e-005
130 640311120.000000 188.183000 9.50699e-005
131 640311200.000000 188.339500 9.49805e-005
132 640311280.000000 188.489500 9.50401e-005
133 640311360.000000 188.647000 9.50699e-005
134 640311440.000000 188.802000 9.50401e-005
135 640311520.000000 188.954500 9.50103e-005
136 640311600.000000 189.112000 9.50103e-005
137 640311680.000000 189.267500 9.50401e-005
138 640311760.000000 189.422500 9.49805e-005
139 640311840.000000 189.578500 9.48911e-005
140 640311920.000000 189.735000 9.48315e-005
141 640312000.000000 189.889000 9.4742e-005
142 640312080.000000 190.042500 9.46228e-005
143 640312160.000000 190.200000 9.4593e-005
144 640312240.000000 190.353500 9.46824e-005
145 640312320.000000 190.508500 9.48017e-005
146 640312400.000000 190.664000 9.48911e-005
147 640312480.000000 190.816000 9.48315e-005
148 640312560.000000 190.973000 9.49209e-005
149 640312640.000000 191.128000 9.48315e-005
150 640312720.000000 191.277000 9.48017e-005
151 640312800.000000 191.435000 9.48613e-005
152 640312880.000000 191.590500 9.48017e-005
153 640312960.000000 191.748500 9.48911e-005
154 640313040.000000 191.905000 9.47719e-005
155 640313120.000000 192.058000 9.4742e-005
156 640313200.000000 192.216500 9.48017e-005
157 640313280.000000 192.373000 9.47719e-005
158 640313360.000000 192.524000 9.47719e-005
159 640313440.000000 192.681500 9.47122e-005
160 640313520.000000 192.836500 9.4742e-005
161 640313600.000000 192.991500 9.46824e-005
162 640313680.000000 193.145500 9.46824e-005
163 640313760.000000 193.300000 9.47719e-005
164 640313840.000000 193.459500 9.46824e-005
165 640313920.000000 193.614500 9.48017e-005
166 640314000.000000 193.768500 9.4742e-005
167 640314080.000000 193.922500 9.46228e-005
168 640314160.000000 194.074500 9.46228e-005
169 640314240.000000 194.231000 9.4593e-005
170 640314320.000000 194.386500 9.46526e-005
171 640314400.000000 194.540500 9.46228e-005
172 640314480.000000 194.697000 9.44738e-005
173 640314560.000000 194.853000 9.45036e-005
174 640314640.000000 195.008000 9.4444e-005
175 640314720.000000 195.163000 9.45632e-005
176 640314800.000000 195.316500 9.44738e-005
177 640314880.000000 195.472500 9.43546e-005
178 640314960.000000 195.627500 9.43546e-005
179 640315040.000000 195.783000 9.43546e-005
180 640315120.000000 195.939000 9.43248e-005
181 640315200.000000 196.092500 9.4295e-005
182 640315280.000000 196.247000 9.42652e-005
183 640315360.000000 196.403000 9.43248e-005
184 640315440.000000 196.556500 9.42354e-005
185 640315520.000000 196.715000 9.42354e-005
186 640315600.000000 196.869500 9.42354e-005
187 640315680.000000 197.024500 9.4295e-005
188 640315760.000000 197.181500 9.42056e-005
189 640315840.000000 197.337500 9.41162e-005
190 640315920.000000 197.491500 9.42354e-005
191 640316000.000000 197.645500 9.42056e-005
192 640316080.000000 197.805000 9.4295e-005
193 640316161.000000 197.957500 9.4295e-005
194 640316240.000000 198.113500 9.42056e-005
195 640316320.000000 198.270500 9.42056e-005
196 640316400.000000 198.422500 9.40864e-005
197 640316480.000000 198.580000 9.41758e-005
198 640316560.000000 198.735500 9.40864e-005
199 640316640.000000 198.886000 9.41162e-005
200 640316720.000000 199.042500 9.40268e-005
201 640316800.000000 199.196500 9.40566e-005
202 640316880.000000 199.351000 9.41162e-005
203 640316960.000000 199.507500 9.41162e-005
204 640317040.000000 199.662500 9.42056e-005
205 640317120.000000 199.817500 9.42354e-005
206 640317200.000000 199.972500 9.42354e-005
207 640317280.000000 200.130500 9.42652e-005
208 640317360.000000 200.283500 9.42652e-005
209 640317440.000000 200.436000 9.42354e-005
210 640317520.000000 200.590500 9.42354e-005
211 640317600.000000 200.746500 9.41758e-005
212 640317680.000000 200.903500 9.42056e-005
213 640317760.000000 201.057500 9.42056e-005
214 640317840.000000 201.207500 9.42056e-005
215 640317920.000000 201.366000 9.43248e-005
216 640318000.000000 201.523500 9.43844e-005
217 640318080.000000 201.675500 9.42056e-005
218 640318160.000000 201.831500 9.42056e-005
219 640318240.000000 201.985000 9.42652e-005
220 640318320.000000 202.144500 9.42354e-005
221 640318400.000000 202.299500 9.42652e-005
222 640318480.000000 202.451500 9.4295e-005
223 640318560.000000 202.610500 9.42652e-005
224 640318640.000000 202.762000 9.43248e-005
225 640318720.000000 202.919500 9.43248e-005
226 640318800.000000 203.076000 9.43546e-005
227 640318880.000000 203.227500 9.42354e-005
228 640318960.000000 203.385000 9.42652e-005
229 640319040.000000 203.541500 9.43248e-005
230 640319120.000000 203.696000 9.42354e-005
231 640319200.000000 203.853500 9.42354e-005
232 640319280.000000 204.004000 9.4295e-005
233 640319360.000000 204.160500 9.42354e-005
234 640319440.000000 204.315500 9.4295e-005
235 640319520.000000 204.469000 9.42354e-005
236 640319600.000000 204.625000 9.43546e-005
237 640319680.000000 204.780500 9.43844e-005
238 640319760.000000 204.935500 9.42354e-005
239 640319840.000000 205.092000 9.42056e-005
240 640319920.000000 205.248000 9.42652e-005
241 640320000.000000 205.402500 9.42354e-005
242 640320080.000000 205.555000 9.42056e-005
243 640320160.000000 205.713000 9.42652e-005
244 640320240.000000 205.867500 9.42354e-005
245 640320320.000000 206.020500 9.42056e-005
246 640320400.000000 206.178000 9.41758e-005
247 640320480.000000 206.329500 9.41758e-005
248 640320560.000000 206.484500 9.42056e-005
249 640320640.000000 206.642000 9.41758e-005
250 640320720.000000 206.794000 9.41758e-005
251 640320800.000000 206.953000 9.42056e-005
252 640320880.000000 207.107000 9.41162e-005
253 640320960.000000 207.261500 9.41758e-005
254 640321040.000000 207.419000 9.41758e-005
255 640321120.000000 207.574000 9.41758e-005
256 640321200.000000 207.731500 9.42652e-005
257 640321280.000000 207.883500 9.41758e-005
258 640321360.000000 208.037500 9.41162e-005
259 640321440.000000 208.196500 9.40864e-005
260 640321520.000000 208.348500 9.40864e-005
261 640321600.000000 208.504500 9.40864e-005
262 640321680.000000 208.658000 9.40864e-005
263 640321760.000000 208.813000 9.41162e-005
264 640321840.000000 208.970000 9.42354e-005
265 640321920.000000 209.124500 9.41758e-005
266 640322000.000000 209.278000 9.42056e-005
267 640322080.000000 209.434000 9.4146e-005
268 640322160.000000 209.588000 9.41162e-005
269 640322240.000000 209.745000 9.41162e-005
270 640322320.000000 209.894500 9.41162e-005
271 640322400.000000 210.050500 9.41758e-005
272 640322480.000000 210.207000 9.4146e-005
273 640322560.000000 210.361500 9.4146e-005
274 640322640.000000 210.520000 9.41758e-005
275 640322720.000000 210.672000 9.41162e-005
276 640322800.000000 210.827500 9.4146e-005
277 640322880.000000 210.983500 9.41162e-005
278 640322960.000000 211.138500 9.4146e-005
279 640323040.000000 211.293000 9.41162e-005
280 640323120.000000 211.448000 9.41758e-005
281 640323200.000000 211.603000 9.41758e-005
282 640323280.000000 211.756500 9.41758e-005
283 640323360.000000 211.912500 9.41758e-005
284 640323440.000000 212.070000 9.40566e-005
285 640323520.000000 212.223000 9.41162e-005
286 640323600.000000 212.378500 9.41758e-005
287 640323680.000000 212.537000 9.4146e-005
288 640323760.000000 212.689000 9.40864e-005
289 640323840.000000 212.846000 9.41162e-005
290 640323920.000000 213.002500 9.4146e-005
291 640324000.000000 213.154500 9.40566e-005
292 640324080.000000 213.313500 9.4146e-005
293 640324160.000000 213.468000 9.40864e-005
294 640324240.000000 213.621500 9.40566e-005
295 640324320.000000 213.776000 9.40566e-005
296 640324400.000000 213.929500 9.40268e-005
297 640324480.000000 214.085000 9.41162e-005
298 640324560.000000 214.241500 9.40566e-005
299 640324640.000000 214.394500 9.40268e-005
300 640324720.000000 214.550000 9.40864e-005
301 640324800.000000 214.704000 9.3997e-005
302 640324880.000000 214.862500 9.39672e-005
303 640324960.000000 215.016000 9.40268e-005
304 640325040.000000 215.168500 9.40268e-005
305 640325120.000000 215.326500 9.39672e-005
306 640325200.000000 215.483000 9.39076e-005
307 640325280.000000 215.636500 9.39672e-005
308 640325360.000000 215.791500 9.40268e-005
309 640325440.000000 215.943000 9.40566e-005
310 640325520.000000 216.102000 9.39672e-005
311 640325600.000000 216.257000 9.39374e-005
312 640325680.000000 216.411000 9.39672e-005
313 640325760.000000 216.565000 9.39374e-005
314 640325840.000000 216.720000 9.40268e-005
315 640325920.000000 216.876500 9.40268e-005
316 640326000.000000 217.029000 9.39076e-005
317 640326080.000000 217.185500 9.39374e-005
318 640326160.000000 217.344500 9.39374e-005
319 640326240.000000 217.496500 9.39374e-005
320 640326320.000000 217.654000 9.39076e-005
321 640326400.000000 217.810500 9.39672e-005
322 640326480.000000 217.963000 9.3997e-005
323 640326560.000000 218.119000 9.39672e-005
324 640326640.000000 218.273500 9.40268e-005
325 640326720.000000 218.428500 9.39672e-005
326 640326800.000000 218.582500 9.39076e-005
327 640326880.000000 218.737000 9.39672e-005
328 640326960.000000 218.895000 9.39076e-005
329 640327040.000000 219.050500 9.39076e-005
330 640327120.000000 219.203500 9.38778e-005
331 640327200.000000 219.360500 9.37884e-005
332 640327280.000000 219.512000 9.39076e-005
333 640327360.000000 219.669000 9.3848e-005
334 640327440.000000 219.825000 9.3848e-005
335 640327520.000000 219.978000 9.38778e-005
336 640327600.000000 220.134500 9.3848e-005
337 640327680.000000 220.288500 9.3848e-005
338 640327760.000000 220.443500 9.38182e-005
339 640327840.000000 220.600000 9.38778e-005
340 640327920.000000 220.752000 9.38778e-005
341 640328000.000000 220.909000 9.37884e-005
342 640328080.000000 221.062500 9.39076e-005
343 640328160.000000 221.218500 9.37884e-005
344 640328240.000000 221.374500 9.38182e-005
345 640328320.000000 221.529500 9.37288e-005
346 640328400.000000 221.683000 9.37288e-005
347 640328480.000000 221.836000 9.37288e-005
348 640328560.000000 221.991500 9.3699e-005
349 640328640.000000 222.147500 9.3699e-005
350 640328720.000000 222.301500 9.3699e-005
351 640328800.000000 222.457500 9.37586e-005
352 640328880.000000 222.613500 9.37586e-005
353 640328960.000000 222.769500 9.37586e-005
354 640329040.000000 222.924500 9.37586e-005
355 640329120.000000 223.077000 9.3699e-005
356 640329200.000000 223.236000 9.36692e-005
357 640329280.000000 223.393500 9.36692e-005
358 640329360.000000 223.546000 9.36096e-005
359 640329440.000000 223.702500 9.36394e-005
360 640329520.000000 223.853000 9.36394e-005
361 640329600.000000 224.010500 9.36096e-005
362 640329680.000000 224.166000 9.34904e-005
363 640329760.000000 224.317000 9.355e-005
364 640329840.000000 224.473500 9.34904e-005
365 640329920.000000 224.630500 9.34904e-005
366 640330000.000000 224.784500 9.35202e-005
367 640330080.000000 224.941000 9.35202e-005
368 640330160.000000 225.095500 9.355e-005
369 640330240.000000 225.250500 9.355e-005
370 640330320.000000 225.405000 9.34904e-005
371 640330400.000000 225.562000 9.35202e-005
372 640330480.000000 225.715500 9.33711e-005
373 640330560.000000 225.868500 9.34605e-005
374 640330640.000000 226.027500 9.34605e-005
375 640330720.000000 226.180000 9.34307e-005
376 640330800.000000 226.336500 9.34904e-005
377 640330880.000000 226.494500 9.34605e-005
378 640330960.000000 226.646500 9.34307e-005
379 640331040.000000 226.802000 9.34009e-005
380 640331120.000000 226.959500 9.34904e-005
381 640331200.000000 227.111500 9.34605e-005
382 640331280.000000 227.270500 9.34904e-005
383 640331360.000000 227.422000 9.34605e-005
384 640331440.000000 227.579000 9.34605e-005
385 640331520.000000 227.737500 9.34009e-005
386 640331600.000000 227.890000 9.34009e-005
387 640331680.000000 228.045500 9.34605e-005
388 640331760.000000 228.201000 9.34605e-005
389 640331840.000000 228.352000 9.34605e-005
390 640331920.000000 228.510500 9.34009e-005
391 640332000.000000 228.664500 9.33711e-005
392 640332080.000000 228.819000 9.33711e-005
393 640332160.000000 228.974500 9.33711e-005
394 640332240.000000 229.125000 9.33413e-005
395 640332320.000000 229.285500 9.32817e-005
396 640332400.000000 229.441000 9.33115e-005
397 640332480.000000 229.593500 9.33413e-005
398 640332560.000000 229.748500 9.32817e-005
399 640332640.000000 229.900000 9.32817e-005
400 640332720.000000 230.058000 9.33115e-005
401 640332800.000000 230.212500 9.31923e-005
402 640332880.000000 230.368500 9.32519e-005
403 640332960.000000 230.522500 9.32519e-005
404 640333040.000000 230.677000 9.32221e-005
405 640333120.000000 230.835000 9.32519e-005
406 640333200.000000 230.988000 9.31923e-005
407 640333280.000000 231.144500 9.32221e-005
408 640333360.000000 231.302000 9.31327e-005
409 640333440.000000 231.453500 9.31327e-005
410 640333520.000000 231.610500 9.31625e-005
411 640333600.000000 231.766000 9.31327e-005
412 640333680.000000 231.918000 9.31029e-005
413 640333760.000000 232.075500 9.31923e-005
414 640333840.000000 232.230500 9.31029e-005
415 640333920.000000 232.386000 9.30731e-005
416 640334000.000000 232.541000 9.30731e-005
417 640334080.000000 232.697500 9.31029e-005
418 640334160.000000 232.852000 9.30433e-005
419 640334240.000000 233.007500 9.29837e-005
420 640334320.000000 233.164500 9.30433e-005
421 640334400.000000 233.319500 9.30433e-005
422 640334480.000000 233.471500 9.30433e-005
423 640334560.000000 233.630000 9.29837e-005
424 640334640.000000 233.786000 9.30433e-005
425 640334720.000000 233.939000 9.30433e-005
426 640334800.000000 234.096500 9.29241e-005
427 640334880.000000 234.246500 9.29837e-005
428 640334960.000000 234.403500 9.29241e-005
429 640335040.000000 234.559000 9.28645e-005
430 640335120.000000 234.712000 9.28347e-005
431 640335200.000000 234.869000 9.28347e-005
432 640335280.000000 235.025500 9.28943e-005
433 640335360.000000 235.182500 9.28049e-005
434 640335440.000000 235.337000 9.28645e-005
435 640335520.000000 235.492500 9.28049e-005
436 640335600.000000 235.644000 9.28049e-005
437 640335680.000000 235.796000 9.27751e-005
438 640335760.000000 235.954500 9.28049e-005
439 640335840.000000 236.109000 9.28049e-005
440 640335920.000000 236.262000 9.28049e-005
441 640336000.000000 236.418000 9.28347e-005
442 640336080.000000 236.575000 9.28049e-005
443 640336160.000000 236.731500 9.28049e-005
444 640336240.000000 236.886000 9.27751e-005
445 640336320.000000 237.040500 9.27453e-005
446 640336400.000000 237.195500 9.27155e-005
447 640336480.000000 237.352500 9.27155e-005
448 640336560.000000 237.507500 9.26857e-005
449 640336640.000000 237.664500 9.27751e-005
450 640336720.000000 237.817500 9.26559e-005
451 640336800.000000 237.974500 9.26857e-005
452 640336880.000000 238.130500 9.26857e-005
453 640336960.000000 238.283500 9.26857e-005
454 640337040.000000 238.440500 9.26857e-005
455 640337120.000000 238.594500 9.26261e-005
456 640337200.000000 238.750500 9.26261e-005
457 640337280.000000 238.904500 9.26261e-005
458 640337360.000000 239.058000 9.25963e-005
459 640337440.000000 239.216000 9.25665e-005
460 640337520.000000 239.368500 9.26261e-005
461 640337600.000000 239.522500 9.25963e-005
462 640337680.000000 239.680000 9.25069e-005
463 640337760.000000 239.831500 9.25665e-005
464 640337840.000000 239.990000 9.25367e-005
465 640337920.000000 240.145500 9.24473e-005
466 640338000.000000 240.299000 9.24175e-005
467 640338080.000000 240.456500 9.24175e-005
468 640338160.000000 240.610000 9.23877e-005
469 640338240.000000 240.766500 9.23579e-005
470 640338320.000000 240.921000 9.23877e-005
471 640338400.000000 241.076500 9.23281e-005
472 640338480.000000 241.231000 9.23877e-005
473 640338560.000000 241.386000 9.23579e-005
474 640338640.000000 241.544000 9.23579e-005
475 640338720.000000 241.697500 9.22983e-005
476 640338800.000000 241.852000 9.22387e-005
477 640338880.000000 242.008500 9.22089e-005
478 640338960.000000 242.161000 9.22685e-005
479 640339040.000000 242.317500 9.22685e-005
480 640339120.000000 242.474500 9.2179e-005
481 640339200.000000 242.628500 9.22685e-005
482 640339280.000000 242.786500 9.22089e-005
483 640339360.000000 242.938500 9.21492e-005
484 640339440.000000 243.094500 9.2179e-005
485 640339520.000000 243.251500 9.22387e-005
486 640339600.000000 243.402500 9.2179e-005
487 640339680.000000 243.558500 9.21194e-005
488 640339760.000000 243.712000 9.20896e-005
489 640339840.000000 243.867500 9.20598e-005
490 640339920.000000 244.024500 9.20002e-005
491 640340000.000000 244.178000 9.19704e-005
492 640340080.000000 244.333500 9.203e-005
493 640340160.000000 244.490500 9.20598e-005
494 640340240.000000 244.641000 9.20002e-005
495 640340320.000000 244.798000 9.20002e-005
496 640340400.000000 244.954500 9.19704e-005
497 640340480.000000 245.108000 9.19406e-005
498 640340560.000000 245.265500 9.19704e-005
499 640340640.000000 245.421000 9.18512e-005
500 640340720.000000 245.575000 9.19406e-005
501 640340800.000000 245.730000 9.19406e-005
502 640340880.000000 245.897000 9.19704e-005
503 640340960.000000 246.039000 9.1881e-005
504 640341040.000000 246.192500 9.1881e-005
505 640341120.000000 246.351500 9.18214e-005
506 640341200.000000 246.503500 9.19108e-005
507 640341280.000000 246.660500 9.17916e-005
508 640341360.000000 246.818000 9.18214e-005
509 640341440.000000 246.969500 9.17916e-005
510 640341520.000000 247.127000 9.17618e-005
511 640341600.000000 247.284000 9.1732e-005
512 640341680.000000 247.440000 9.17022e-005
513 640341760.000000 247.595500 9.1732e-005
514 640341840.000000 247.751500 9.17022e-005
515 640341920.000000 247.908000 9.1732e-005
516 640342000.000000 248.061500 9.16724e-005
517 640342080.000000 248.216500 9.1732e-005
518 640342160.000000 248.371000 9.16724e-005
519 640342240.000000 248.526500 9.16426e-005
520 640342320.000000 248.682500 9.1583e-005
521 640342400.000000 248.838000 9.15532e-005
522 640342480.000000 248.992000 9.16426e-005
523 640342560.000000 249.149500 9.1583e-005
524 640342640.000000 249.302000 9.15234e-005
525 640342720.000000 249.456500 9.15532e-005
526 640342800.000000 249.614500 9.14638e-005
527 640342880.000000 249.763500 9.14042e-005
528 640342960.000000 249.920500 9.1434e-005
529 640343040.000000 250.074500 9.1434e-005
530 640343120.000000 250.230000 9.1434e-005
531 640343200.000000 250.388000 9.13744e-005
532 640343280.000000 250.540500 9.13148e-005
533 640343360.000000 250.697500 9.12552e-005
534 640343440.000000 250.851500 9.13744e-005
535 640343520.000000 251.003500 9.13148e-005
536 640343600.000000 251.162500 9.12552e-005
537 640343680.000000 251.317000 9.11956e-005
538 640343760.000000 251.472000 9.11658e-005
539 640343840.000000 251.626500 9.12552e-005
540 640343920.000000 251.777500 9.12254e-005
541 640344000.000000 251.937000 9.11658e-005
542 640344080.000000 252.092000 9.11658e-005
543 640344160.000000 252.247000 9.11062e-005
544 640344240.000000 252.401500 9.11062e-005
545 640344320.000000 252.557500 9.11658e-005
546 640344400.000000 252.714500 9.10764e-005
547 640344480.000000 252.870500 9.1136e-005
548 640344560.000000 253.023500 9.09572e-005
549 640344640.000000 253.180000 9.10168e-005
550 640344720.000000 253.334000 9.09274e-005
551 640344800.000000 253.491000 9.09274e-005
552 640344880.000000 253.644000 9.10168e-005
553 640344960.000000 253.799000 9.08975e-005
554 640345040.000000 253.956000 9.09572e-005
555 640345120.000000 254.109500 9.08677e-005
556 640345200.000000 254.265500 9.08677e-005
557 640345280.000000 254.419500 9.08081e-005
558 640345360.000000 254.574000 9.07783e-005
559 640345440.000000 254.731500 9.07485e-005
560 640345520.000000 254.884000 9.08081e-005
561 640345600.000000 255.039000 9.08379e-005
562 640345680.000000 255.195500 9.08081e-005
563 640345760.000000 255.348000 9.07783e-005
564 640345840.000000 255.506000 9.07187e-005
565 640345920.000000 255.662500 9.05995e-005
566 640346000.000000 255.816500 9.06591e-005
567 640346080.000000 255.973000 9.06293e-005
568 640346160.000000 256.126000 9.06591e-005
569 640346240.000000 256.285000 9.06293e-005
570 640346320.000000 256.438000 9.05697e-005
571 640346400.000000 256.593000 9.05101e-005
572 640346480.000000 256.748000 9.05101e-005
573 640346560.000000 256.904500 9.05399e-005
574 640346640.000000 257.058000 9.05995e-005
575 640346720.000000 257.214000 9.05697e-005
576 640346800.000000 257.367500 9.05101e-005
577 640346880.000000 257.526500 9.04505e-005
578 640346960.000000 257.680500 9.04505e-005
579 640347040.000000 257.836000 9.03909e-005
580 640347120.000000 257.994500 9.04505e-005
581 640347200.000000 258.145500 9.05101e-005
582 640347280.000000 258.301500 9.03909e-005
583 640347360.000000 258.454500 9.03611e-005
584 640347440.000000 258.612000 9.02717e-005
585 640347520.000000 258.767000 9.02419e-005
586 640347600.000000 258.920500 9.02717e-005
587 640347680.000000 259.075000 9.02121e-005
588 640347760.000000 259.233500 9.02717e-005
589 640347840.000000 259.384000 9.01227e-005
590 640347920.000000 259.541000 9.01525e-005
591 640348000.000000 259.694000 9.01823e-005
592 640348080.000000 259.850000 9.00333e-005
593 640348160.000000 260.004000 9.00929e-005
594 640348240.000000 260.157500 9.00929e-005
595 640348320.000000 260.313500 9.00929e-005
596 640348400.000000 260.470500 9.00929e-005
597 640348480.000000 260.625500 8.99439e-005
598 640348560.000000 260.783500 8.99439e-005
599 640348640.000000 260.936000 9.00035e-005
600 640348720.000000 261.092500 8.99737e-005
601 640348800.000000 261.247500 9.00035e-005
602 640348880.000000 261.401500 8.98843e-005
603 640348960.000000 261.558000 8.99439e-005
604 640349040.000000 261.711500 8.98247e-005
605 640349120.000000 261.868500 8.97949e-005
606 640349200.000000 262.023500 8.97651e-005
607 640349280.000000 262.176000 8.97651e-005
608 640349360.000000 262.335000 8.98247e-005
609 640349440.000000 262.488500 8.97651e-005
610 640349520.000000 262.646000 8.98247e-005
611 640349600.000000 262.800500 8.97353e-005
612 640349680.000000 262.956500 8.97651e-005
613 640349760.000000 263.111500 8.97353e-005
614 640349840.000000 263.267000 8.97055e-005
615 640349920.000000 263.422000 8.97055e-005
616 640350000.000000 263.579000 8.9616e-005
617 640350080.000000 263.730000 8.96757e-005
618 640350160.000000 263.887500 8.97055e-005
619 640350240.000000 264.041000 8.96459e-005
620 640350320.000000 264.198000 8.96757e-005
621 640350400.000000 264.351500 8.9616e-005
622 640350480.000000 264.505500 8.9616e-005
623 640350560.000000 264.661500 8.95862e-005
624 640350640.000000 264.817500 8.95862e-005
625 640350720.000000 264.967500 8.9616e-005
626 640350800.000000 265.126000 8.95266e-005
627 640350880.000000 265.281500 8.9616e-005
628 640350960.000000 265.434500 8.94372e-005
629 640351040.000000 265.587500 8.9467e-005
630 640351120.000000 265.745500 8.94372e-005
631 640351200.000000 265.903500 8.94074e-005
632 640351280.000000 266.055000 8.95266e-005
633 640351360.000000 266.212000 8.94968e-005
634 640351440.000000 266.365500 8.94074e-005
635 640351520.000000 266.522500 8.94968e-005
636 640351600.000000 266.680000 8.93478e-005
637 640351680.000000 266.833500 8.9318e-005
638 640351760.000000 266.990000 8.92584e-005
639 640351840.000000 267.143000 8.92584e-005
640 640351920.000000 267.298000 8.92584e-005
641 640352000.000000 267.452000 8.92882e-005
642 640352080.000000 267.609000 8.91988e-005
643 640352160.000000 267.765000 8.9169e-005
644 640352240.000000 267.920500 8.92286e-005
645 640352320.000000 268.077500 8.9169e-005
646 640352400.000000 268.233500 8.91392e-005
647 640352480.000000 268.391000 8.91094e-005
648 640352560.000000 268.543500 8.89902e-005
649 640352640.000000 268.700000 8.902e-005
650 640352720.000000 268.854000 8.89902e-005
651 640352800.000000 269.008500 8.902e-005
652 640352880.000000 269.164500 8.89604e-005
653 640352960.000000 269.316500 8.89902e-005
654 640353040.000000 269.475000 8.89604e-005
655 640353120.000000 269.629500 8.8871e-005
656 640353200.000000 269.782500 8.8871e-005
657 640353280.000000 269.940000 8.89306e-005
658 640353360.000000 270.091500 8.8871e-005
659 640353440.000000 270.248500 8.88412e-005
660 640353520.000000 270.401500 8.88412e-005
661 640353600.000000 270.557500 8.88412e-005
662 640353680.000000 270.713000 8.8722e-005
663 640353760.000000 270.868500 8.8722e-005
664 640353840.000000 271.025500 8.8722e-005
665 640353920.000000 271.181000 8.86922e-005
666 640354000.000000 271.336000 8.86922e-005
667 640354080.000000 271.491500 8.86028e-005
668 640354160.000000 271.645000 8.86624e-005
669 640354240.000000 271.800500 8.86922e-005
670 640354320.000000 271.957500 8.8573e-005
671 640354400.000000 272.108500 8.86326e-005
672 640354480.000000 272.264500 8.86028e-005
673 640354560.000000 272.419000 8.84836e-005
674 640354640.000000 272.576000 8.85134e-005
675 640354721.000000 272.734500 8.8573e-005
676 640354800.000000 272.885500 8.85432e-005
677 640354880.000000 273.041500 8.85432e-005
678 640354960.000000 273.200000 8.84836e-005
679 640355040.000000 273.355000 8.8573e-005
680 640355120.000000 273.509500 8.84538e-005
681 640355200.000000 273.662500 8.84538e-005
682 640355280.000000 273.820500 8.8424e-005
683 640355360.000000 273.975000 8.83942e-005
684 640355440.000000 274.128500 8.83942e-005
685 640355520.000000 274.284500 8.83942e-005
686 640355600.000000 274.437500 8.84538e-005
687 640355680.000000 274.595000 8.83942e-005
688 640355760.000000 274.747000 8.8424e-005
689 640355840.000000 274.902500 8.83942e-005
690 640355920.000000 275.056500 8.83345e-005
691 640356000.000000 275.212000 8.8424e-005
692 640356080.000000 275.365000 8.83047e-005
693 640356160.000000 275.523000 8.83047e-005
694 640356240.000000 275.676000 8.83644e-005
695 640356320.000000 275.835500 8.82749e-005
696 640356400.000000 275.990000 8.82451e-005
697 640356480.000000 276.145000 8.81855e-005
698 640356560.000000 276.300500 8.82451e-005
699 640356640.000000 276.453500 8.82153e-005
700 640356720.000000 276.612000 8.81557e-005
701 640356800.000000 276.765500 8.81855e-005
702 640356880.000000 276.922000 8.80961e-005
703 640356960.000000 277.077000 8.81855e-005
704 640357040.000000 277.232500 8.80365e-005
705 640357120.000000 277.387000 8.79471e-005
706 640357200.000000 277.543500 8.80067e-005
707 640357280.000000 277.694500 8.79769e-005
708 640357360.000000 277.853500 8.80067e-005
709 640357440.000000 278.007000 8.78875e-005
710 640357520.000000 278.166500 8.79173e-005
711 640357600.000000 278.322000 8.78577e-005
712 640357680.000000 278.477000 8.79173e-005
713 640357760.000000 278.635500 8.78577e-005
714 640357840.000000 278.788000 8.77981e-005
715 640357920.000000 278.943500 8.78577e-005
716 640358000.000000 279.097500 8.78279e-005
717 640358080.000000 279.252500 8.77981e-005
718 640358160.000000 279.407000 8.77683e-005
719 640358240.000000 279.560500 8.77683e-005
720 640358320.000000 279.715000 8.77683e-005
721 640358400.000000 279.873500 8.77385e-005
722 640358480.000000 280.025000 8.76491e-005
723 640358560.000000 280.180000 8.77087e-005
724 640358640.000000 280.336000 8.76193e-005
725 640358720.000000 280.491500 8.77087e-005
726 640358800.000000 280.645500 8.76491e-005
727 640358880.000000 280.800000 8.76789e-005
728 640358960.000000 280.954000 8.77087e-005
729 640359040.000000 281.113000 8.77087e-005
730 640359120.000000 281.264500 8.76789e-005
731 640359200.000000 281.421500 8.76193e-005
732 640359280.000000 281.575000 8.75597e-005
733 640359360.000000 281.733500 8.76491e-005
734 640359440.000000 281.888000 8.76491e-005
735 640359520.000000 282.042000 8.76491e-005
736 640359600.000000 282.199500 8.75895e-005
737 640359680.000000 282.352500 8.75597e-005
738 640359760.000000 282.508000 8.75597e-005
739 640359840.000000 282.663000 8.75299e-005
740 640359920.000000 282.817500 8.75597e-005
741 640360000.000000 282.973000 8.75001e-005
742 640360080.000000 283.130500 8.75001e-005
743 640360160.000000 283.284500 8.74703e-005
744 640360240.000000 283.442500 8.74703e-005
745 640360320.000000 283.597500 8.74703e-005
746 640360400.000000 283.752500 8.74405e-005
747 640360480.000000 283.907500 8.74703e-005
748 640360560.000000 284.060000 8.73809e-005
749 640360640.000000 284.218500 8.74703e-005
750 640360720.000000 284.371000 8.74703e-005
751 640360800.000000 284.530000 8.74107e-005
752 640360880.000000 284.682500 8.73511e-005
753 640360960.000000 284.835000 8.73511e-005
754 640361040.000000 284.991500 8.73213e-005
755 640361120.000000 285.145000 8.72915e-005
756 640361200.000000 285.300500 8.73511e-005
757 640361280.000000 285.454500 8.72915e-005
758 640361360.000000 285.608000 8.72617e-005
759 640361440.000000 285.763000 8.72319e-005
760 640361520.000000 285.922500 8.71723e-005
761 640361600.000000 286.076000 8.72319e-005
762 640361680.000000 286.233500 8.71723e-005
763 640361760.000000 286.385500 8.71425e-005
764 640361840.000000 286.543500 8.71127e-005
765 640361920.000000 286.697000 8.7053e-005
766 640362000.000000 286.849500 8.71425e-005
767 640362080.000000 287.007500 8.7053e-005
768 640362160.000000 287.164500 8.69934e-005
769 640362240.000000 287.320500 8.71425e-005
770 640362320.000000 287.473000 8.7053e-005
771 640362400.000000 287.625500 8.69934e-005
772 640362480.000000 287.784500 8.70232e-005
773 640362560.000000 287.937500 8.69934e-005
774 640362640.000000 288.092500 8.70232e-005
775 640362720.000000 288.247500 8.69338e-005
776 640362800.000000 288.405500 8.69338e-005
777 640362880.000000 288.562500 8.69338e-005
778 640362960.000000 288.716500 8.69338e-005
779 640363040.000000 288.872500 8.6904e-005
780 640363120.000000 289.027500 8.6904e-005
781 640363200.000000 289.182000 8.6904e-005
782 640363280.000000 289.338000 8.68742e-005
783 640363360.000000 289.494500 8.68444e-005
784 640363440.000000 289.644500 8.68444e-005
785 640363520.000000 289.802500 8.68146e-005
786 640363600.000000 289.957000 8.68146e-005
787 640363680.000000 290.110500 8.68444e-005
788 640363760.000000 290.267000 8.6904e-005
789 640363840.000000 290.417500 8.6904e-005
790 640363920.000000 290.576500 8.67848e-005
791 640364000.000000 290.730500 8.66656e-005
792 640364080.000000 290.886000 8.66656e-005
793 640364160.000000 291.041000 8.6755e-005
794 640364240.000000 291.196000 8.68444e-005
795 640364320.000000 291.351000 8.67848e-005
796 640364400.000000 291.508500 8.67848e-005
797 640364480.000000 291.659500 8.66954e-005
798 640364560.000000 291.818500 8.6755e-005
799 640364640.000000 291.973000 8.68146e-005
800 640364720.000000 292.128500 8.6755e-005
801 640364800.000000 292.285500 8.67848e-005
802 640364880.000000 292.437500 8.66656e-005
803 640364960.000000 292.595000 8.6755e-005
804 640365040.000000 292.747000 8.66656e-005
805 640365120.000000 292.905000 8.66656e-005
806 640365200.000000 293.058000 8.6755e-005
807 640365280.000000 293.214000 8.67252e-005
808 640365360.000000 293.369500 8.6755e-005
809 640365440.000000 293.526500 8.67252e-005
810 640365520.000000 293.682000 8.6755e-005
811 640365600.000000 293.839000 8.6755e-005
812 640365680.000000 293.991000 8.6755e-005
813 640365760.000000 294.146000 8.6755e-005
814 640365840.000000 294.300500 8.66358e-005
815 640365920.000000 294.456500 8.66656e-005
816 640366000.000000 294.612000 8.67252e-005
817 640366080.000000 294.763500 8.66358e-005
818 640366160.000000 294.919000 8.6755e-005
819 640366240.000000 295.071500 8.65762e-005
820 640366321.000000 295.226500 8.66656e-005
821 640366400.000000 295.383000 8.65464e-005
822 640366480.000000 295.535500 8.65464e-005
823 640366560.000000 295.692500 8.66358e-005
824 640366640.000000 295.845000 8.65762e-005
825 640366720.000000 296.001500 8.6606e-005
826 640366800.000000 296.156500 8.65166e-005
827 640366880.000000 296.312500 8.6457e-005
828 640366960.000000 296.466500 8.65762e-005
829 640367040.000000 296.624500 8.65166e-005
830 640367120.000000 296.780000 8.65166e-005
831 640367200.000000 296.934500 8.6457e-005
832 640367280.000000 297.089500 8.6457e-005
833 640367360.000000 297.244500 8.63676e-005
834 640367440.000000 297.402000 8.63974e-005
835 640367520.000000 297.556000 8.65166e-005
836 640367600.000000 297.712500 8.64868e-005
837 640367680.000000 297.867500 8.6457e-005
838 640367760.000000 298.021000 8.64868e-005
839 640367840.000000 298.178500 8.6457e-005
840 640367920.000000 298.331500 8.64868e-005
841 640368000.000000 298.490000 8.64272e-005
842 640368080.000000 298.643000 8.65166e-005
843 640368160.000000 298.800500 8.65166e-005
844 640368240.000000 298.955500 8.6457e-005
845 640368320.000000 299.110500 8.64868e-005
846 640368400.000000 299.266500 8.6457e-005
847 640368480.000000 299.422000 8.65166e-005
848 640368560.000000 299.575500 8.65464e-005
849 640368640.000000 299.733000 8.6457e-005
850 640368720.000000 299.888500 8.65762e-005
851 640368800.000000 300.040500 8.6457e-005
852 640368880.000000 300.196500 8.6457e-005
853 640368960.000000 300.348500 8.64272e-005
854 640369040.000000 300.505500 8.64868e-005
855 640369120.000000 300.658500 8.6457e-005
856 640369200.000000 300.810000 8.6457e-005
857 640369280.000000 300.967500 8.64868e-005
858 640369360.000000 301.125000 8.64272e-005
859 640369440.000000 301.280500 8.64272e-005
860 640369520.000000 301.434000 8.6457e-005
861 640369600.000000 301.586500 8.6457e-005
862 640369680.000000 301.744500 8.6457e-005
863 640369760.000000 301.901000 8.6457e-005
864 640369840.000000 302.053000 8.64868e-005
865 640369920.000000 302.207500 8.64272e-005
866 640370000.000000 302.364000 8.6457e-005
867 640370080.000000 302.524000 8.65166e-005
868 640370160.000000 302.675500 8.64868e-005
869 640370240.000000 302.828500 8.6457e-005
870 640370320.000000 302.986000 8.6457e-005
871 640370400.000000 303.137000 8.64272e-005
872 640370480.000000 303.296000 8.65166e-005
873 640370560.000000 303.449500 8.63974e-005
874 640370640.000000 303.606000 8.6457e-005
875 640370720.000000 303.760500 8.63676e-005
876 640370800.000000 303.917000 8.64272e-005
877 640370880.000000 304.073000 8.64272e-005
878 640370960.000000 304.230000 8.63974e-005
879 640371040.000000 304.382500 8.63676e-005
880 640371120.000000 304.540000 8.63676e-005
881 640371200.000000 304.691000 8.6308e-005
882 640371280.000000 304.848500 8.63378e-005
883 640371360.000000 305.004000 8.63378e-005
884 640371440.000000 305.156000 8.63378e-005
885 640371520.000000 305.312500 8.6308e-005
886 640371600.000000 305.464500 8.63378e-005
887 640371680.000000 305.620000 8.6308e-005
888 640371760.000000 305.773500 8.6308e-005
889 640371840.000000 305.928500 8.6308e-005
890 640371920.000000 306.084000 8.62186e-005
891 640372000.000000 306.240500 8.63378e-005
892 640372080.000000 306.394500 8.6159e-005
893 640372160.000000 306.552000 8.6308e-005
894 640372240.000000 306.704000 8.62484e-005
895 640372320.000000 306.861500 8.62186e-005
896 640372400.000000 307.016000 8.62484e-005
897 640372480.000000 307.172000 8.62782e-005
898 640372560.000000 307.327500 8.62484e-005
899 640372640.000000 307.482000 8.62186e-005
900 640372720.000000 307.637000 8.6159e-005
901 640372800.000000 307.794500 8.62484e-005
902 640372880.000000 307.947500 8.61292e-005
903 640372960.000000 308.102500 8.61888e-005
904 640373040.000000 308.258500 8.62186e-005
905 640373120.000000 308.416000 8.61888e-005
906 640373200.000000 308.572500 8.62484e-005
907 640373280.000000 308.723000 8.61888e-005
908 640373360.000000 308.879500 8.6308e-005
909 640373440.000000 309.036500 8.62186e-005
910 640373520.000000 309.193000 8.62186e-005
911 640373600.000000 309.344500 8.61888e-005
912 640373680.000000 309.497500 8.6159e-005
913 640373760.000000 309.657000 8.62186e-005
914 640373840.000000 309.813500 8.62186e-005
915 640373920.000000 309.965000 8.62484e-005
916 640374000.000000 310.119500 8.62484e-005
917 640374080.000000 310.276000 8.62186e-005
918 640374160.000000 310.428500 8.6308e-005
919 640374240.000000 310.585500 8.62484e-005
920 640374320.000000 310.736000 8.62186e-005
921 640374400.000000 310.893500 8.6308e-005
922 640374480.000000 311.046000 8.62186e-005
923 640374560.000000 311.202000 8.62186e-005
924 640374640.000000 311.357000 8.62186e-005
925 640374720.000000 311.513500 8.62484e-005
926 640374800.000000 311.668000 8.62186e-005
927 640374880.000000 311.825000 8.62484e-005
928 640374960.000000 311.977500 8.62484e-005
929 640375040.000000 312.134500 8.62186e-005
930 640375120.000000 312.288000 8.62186e-005
931 640375200.000000 312.444000 8.62186e-005
932 640375280.000000 312.600500 8.62186e-005
933 640375360.000000 312.753000 8.62186e-005
934 640375440.000000 312.911000 8.6159e-005
935 640375520.000000 313.064000 8.61888e-005
936 640375600.000000 313.222500 8.6159e-005
937 640375680.000000 313.375500 8.61888e-005
938 640375760.000000 313.530000 8.62186e-005
939 640375840.000000 313.686000 8.61292e-005
940 640375920.000000 313.843500 8.6159e-005
941 640376000.000000 313.998500 8.61292e-005
942 640376080.000000 314.154500 8.61292e-005
943 640376160.000000 314.306500 8.61888e-005
944 640376240.000000 314.465500 8.61292e-005
945 640376320.000000 314.621500 8.61292e-005
946 640376400.000000 314.776000 8.60994e-005
947 640376480.000000 314.929000 8.60994e-005
948 640376560.000000 315.082500 8.61292e-005
949 640376640.000000 315.240000 8.60696e-005
950 640376720.000000 315.391000 8.61292e-005
951 640376800.000000 315.546500 8.60696e-005
952 640376880.000000 315.702500 8.61292e-005
953 640376960.000000 315.856500 8.60696e-005
954 640377040.000000 316.008000 8.60994e-005
955 640377120.000000 316.163000 8.60696e-005
956 640377200.000000 316.320000 8.6159e-005
957 640377280.000000 316.477000 8.61292e-005
958 640377360.000000 316.629000 8.60696e-005
959 640377440.000000 316.783500 8.60994e-005
960 640377520.000000 316.939500 8.601e-005
961 640377600.000000 317.093000 8.60696e-005
962 640377680.000000 317.250500 8.60696e-005
963 640377760.000000 317.404000 8.60994e-005
964 640377840.000000 317.561500 8.60696e-005
965 640377920.000000 317.716000 8.61292e-005
966 640378000.000000 317.871500 8.60994e-005
967 640378080.000000 318.026500 8.60994e-005
968 640378160.000000 318.183000 8.60398e-005
969 640378240.000000 318.337000 8.60696e-005
970 640378320.000000 318.494500 8.60696e-005
971 640378400.000000 318.648000 8.60696e-005
972 640378480.000000 318.806500 8.60696e-005
973 640378560.000000 318.959500 8.59504e-005
974 640378640.000000 319.117000 8.60696e-005
975 640378720.000000 319.271500 8.60398e-005
976 640378800.000000 319.425000 8.601e-005
977 640378880.000000 319.581000 8.60994e-005
978 640378960.000000 319.736000 8.60398e-005
979 640379040.000000 319.889500 8.59802e-005
980 640379120.000000 320.047000 8.601e-005
981 640379200.000000 320.200500 8.60398e-005
982 640379280.000000 320.357500 8.60696e-005
983 640379360.000000 320.511000 8.60398e-005
984 640379440.000000 320.666000 8.60696e-005
985 640379520.000000 320.819500 8.601e-005
986 640379600.000000 320.975000 8.60398e-005
987 640379680.000000 321.126500 8.59504e-005
988 640379760.000000 321.284500 8.60696e-005
989 640379840.000000 321.438500 8.60398e-005
990 640379920.000000 321.594000 8.59206e-005
991 640380000.000000 321.751000 8.59206e-005
992 640380080.000000 321.903500 8.601e-005
993 640380160.000000 322.058500 8.601e-005
994 640380240.000000 322.215000 8.601e-005
995 640380320.000000 322.372000 8.59504e-005
996 640380400.000000 322.525500 8.60398e-005
997 640380480.000000 322.676500 8.601e-005
998 640380560.000000 322.836000 8.58908e-005
999 640380640.000000 322.991000 8.59206e-005
1000 640380720.000000 323.144000 8.59206e-005
1001 640380800.000000 323.299500 8.59206e-005
1002 640380880.000000 323.454000 8.59206e-005
1003 640380960.000000 323.613000 8.59206e-005
1004 640381040.000000 323.769500 8.5861e-005
1005 640381120.000000 323.922000 8.5861e-005
1006 640381200.000000 324.077000 8.59206e-005
1007 640381280.000000 324.233500 8.59206e-005
1008 640381360.000000 324.393000 8.5861e-005
1009 640381440.000000 324.543500 8.59504e-005
1010 640381520.000000 324.697000 8.59504e-005
1011 640381600.000000 324.855000 8.59504e-005
1012 640381680.000000 325.007000 8.5861e-005
1013 640381760.000000 325.165000 8.59504e-005
1014 640381840.000000 325.320500 8.58908e-005
1015 640381920.000000 325.472000 8.5861e-005
1016 640382000.000000 325.629000 8.58312e-005
1017 640382080.000000 325.781500 8.58312e-005
1018 640382160.000000 325.938000 8.57715e-005
1019 640382240.000000 326.091500 8.57715e-005
1020 640382320.000000 326.245500 8.58312e-005
1021 640382400.000000 326.399500 8.58908e-005
1022 640382480.000000 326.556500 8.58908e-005
1023 640382560.000000 326.710500 8.58908e-005
1024 640382640.000000 326.866500 8.58312e-005
1025 640382720.000000 327.020000 8.58014e-005
1026 640382800.000000 327.177500 8.58312e-005
1027 640382880.000000 327.331000 8.57715e-005
1028 640382960.000000 327.485500 8.5861e-005
1029 640383040.000000 327.642500 8.57715e-005
1030 640383120.000000 327.797000 8.58014e-005
1031 640383200.000000 327.952000 8.58014e-005
1032 640383280.000000 328.108000 8.58014e-005
1033 640383360.000000 328.261500 8.58312e-005
1034 640383440.000000 328.419000 8.57715e-005
1035 640383520.000000 328.575000 8.58312e-005
1036 640383600.000000 328.729000 8.5861e-005
1037 640383680.000000 328.886500 8.57715e-005
1038 640383760.000000 329.040000 8.58014e-005
1039 640383840.000000 329.200000 8.58014e-005
1040 640383920.000000 329.353000 8.57715e-005
1041 640384000.000000 329.509000 8.58014e-005
1042 640384080.000000 329.665000 8.58014e-005
1043 640384160.000000 329.816500 8.58312e-005
1044 640384240.000000 329.971500 8.57417e-005
1045 640384320.000000 330.125500 8.58312e-005
1046 640384400.000000 330.283500 8.57417e-005
1047 640384480.000000 330.439000 8.58014e-005
1048 640384560.000000 330.589500 8.58014e-005
1049 640384640.000000 330.746500 8.58312e-005
1050 640384720.000000 330.903000 8.58014e-005
1051 640384800.000000 331.058000 8.57417e-005
1052 640384880.000000 331.210500 8.57417e-005
1053 640384960.000000 331.363500 8.57715e-005
1054 640385040.000000 331.521000 8.57417e-005
1055 640385120.000000 331.678000 8.57417e-005
1056 640385200.000000 331.830500 8.56523e-005
1057 640385280.000000 331.986500 8.57417e-005
1058 640385360.000000 332.139500 8.55927e-005
1059 640385440.000000 332.297000 8.56225e-005
1060 640385520.000000 332.452500 8.56523e-005
1061 640385600.000000 332.605000 8.55927e-005
1062 640385680.000000 332.760500 8.56225e-005
1063 640385760.000000 332.917000 8.56225e-005
1064 640385840.000000 333.070500 8.55927e-005
1065 640385920.000000 333.226500 8.56523e-005
1066 640386000.000000 333.381500 8.56225e-005
1067 640386080.000000 333.536500 8.56225e-005
1068 640386160.000000 333.694000 8.56225e-005
1069 640386240.000000 333.846500 8.55927e-005
1070 640386320.000000 334.005000 8.56225e-005
1071 640386400.000000 334.161000 8.55927e-005
1072 640386480.000000 334.317000 8.55927e-005
1073 640386560.000000 334.473000 8.55629e-005
1074 640386640.000000 334.625000 8.55927e-005
1075 640386720.000000 334.782000 8.55629e-005
1076 640386800.000000 334.934500 8.55033e-005
1077 640386880.000000 335.093000 8.55033e-005
1078 640386960.000000 335.246000 8.55033e-005
1079 640387040.000000 335.401500 8.55331e-005
1080 640387120.000000 335.557000 8.55033e-005
1081 640387200.000000 335.713500 8.55033e-005
1082 640387280.000000 335.865500 8.55927e-005
1083 640387360.000000 336.021500 8.55927e-005
1084 640387440.000000 336.172500 8.55927e-005
1085 640387520.000000 336.332000 8.54735e-005
1086 640387600.000000 336.486500 8.55331e-005
1087 640387680.000000 336.637500 8.55033e-005
1088 640387760.000000 336.791000 8.54437e-005
1089 640387840.000000 336.947000 8.55033e-005
1090 640387920.000000 337.105500 8.55331e-005
1091 640388000.000000 337.257500 8.55033e-005
1092 640388080.000000 337.410000 8.55331e-005
1093 640388160.000000 337.567500 8.54735e-005
1094 640388240.000000 337.723000 8.55033e-005
1095 640388320.000000 337.877000 8.54735e-005
1096 640388400.000000 338.033500 8.54139e-005
1097 640388480.000000 338.185500 8.54139e-005
1098 640388560.000000 338.343500 8.53841e-005
1099 640388640.000000 338.498000 8.54139e-005
1100 640388720.000000 338.652500 8.53543e-005
1101 640388800.000000 338.809500 8.53841e-005
1102 640388880.000000 338.963000 8.53841e-005
1103 640388960.000000 339.121500 8.54735e-005
1104 640389040.000000 339.276000 8.55331e-005
1105 640389120.000000 339.435000 8.53543e-005
1106 640389200.000000 339.589500 8.54437e-005
1107 640389280.000000 339.743000 8.53543e-005
1108 640389360.000000 339.901000 8.53841e-005
1109 640389440.000000 340.054000 8.53245e-005
1110 640389520.000000 340.209500 8.53543e-005
1111 640389600.000000 340.363500 8.53245e-005
1112 640389680.000000 340.518500 8.52947e-005
1113 640389760.000000 340.675500 8.53543e-005
1114 640389840.000000 340.828500 8.53245e-005
1115 640389920.000000 340.984000 8.52947e-005
1116 640390000.000000 341.138500 8.52947e-005
1117 640390080.000000 341.294500 8.52053e-005
1118 640390160.000000 341.447000 8.52947e-005
1119 640390240.000000 341.605000 8.52351e-005
1120 640390320.000000 341.757000 8.52947e-005
1121 640390400.000000 341.915500 8.53245e-005
1122 640390480.000000 342.068000 8.52053e-005
1123 640390560.000000 342.224500 8.52947e-005
1124 640390640.000000 342.378500 8.52053e-005
1125 640390720.000000 342.533500 8.52649e-005
1126 640390800.000000 342.688000 8.51755e-005
1127 640390880.000000 342.845000 8.52351e-005
1128 640390960.000000 342.996500 8.52351e-005
1129 640391040.000000 343.156000 8.51755e-005
1130 640391120.000000 343.309500 8.51457e-005
1131 640391200.000000 343.463500 8.52351e-005
1132 640391280.000000 343.620500 8.52053e-005
1133 640391360.000000 343.772000 8.52053e-005
1134 640391440.000000 343.927000 8.51457e-005
1135 640391520.000000 344.085500 8.51159e-005
1136 640391600.000000 344.242500 8.51159e-005
1137 640391680.000000 344.398000 8.51457e-005
1138 640391760.000000 344.550000 8.51457e-005
1139 640391840.000000 344.709000 8.51755e-005
1140 640391920.000000 344.864000 8.52351e-005
1141 640392000.000000 345.017500 8.51755e-005
1142 640392080.000000 345.172000 8.51457e-005
1143 640392160.000000 345.325000 8.51159e-005
1144 640392240.000000 345.484000 8.50861e-005
1145 640392320.000000 345.640000 8.51159e-005
1146 640392400.000000 345.791500 8.51755e-005
1147 640392480.000000 345.945500 8.51755e-005
1148 640392560.000000 346.101000 8.51159e-005
1149 640392640.000000 346.255500 8.50861e-005
1150 640392720.000000 346.410000 8.50563e-005
1151 640392800.000000 346.564500 8.50563e-005
1152 640392880.000000 346.720000 8.50563e-005
1153 640392960.000000 346.876500 8.51755e-005
1154 640393040.000000 347.031500 8.50861e-005
1155 640393120.000000 347.185000 8.50563e-005
1156 640393200.000000 347.337500 8.51159e-005
1157 640393280.000000 347.496000 8.50563e-005
1158 640393360.000000 347.648000 8.49967e-005
1159 640393440.000000 347.806000 8.50861e-005
1160 640393520.000000 347.959500 8.50563e-005
1161 640393600.000000 348.115000 8.50861e-005
1162 640393680.000000 348.268500 8.49967e-005
1163 640393760.000000 348.425500 8.50265e-005
1164 640393840.000000 348.578500 8.50563e-005
1165 640393920.000000 348.735500 8.50861e-005
1166 640394000.000000 348.891000 8.50265e-005
1167 640394080.000000 349.046500 8.49669e-005
1168 640394160.000000 349.204000 8.49669e-005
1169 640394240.000000 349.358000 8.49669e-005
1170 640394320.000000 349.516000 8.49669e-005
1171 640394400.000000 349.670000 8.49073e-005
1172 640394480.000000 349.829500 8.49669e-005
1173 640394560.000000 349.982000 8.49073e-005
1174 640394640.000000 350.137000 8.48775e-005
1175 640394720.000000 350.292000 8.48775e-005
1176 640394800.000000 350.448000 8.47583e-005
1177 640394880.000000 350.600500 8.49371e-005
1178 640394960.000000 350.758000 8.47583e-005
1179 640395040.000000 350.909500 8.48179e-005
1180 640395120.000000 351.068500 8.48477e-005
1181 640395200.000000 351.220000 8.48179e-005
1182 640395280.000000 351.376500 8.48179e-005
1183 640395360.000000 351.531000 8.47881e-005
1184 640395440.000000 351.686500 8.48179e-005
1185 640395520.000000 351.840500 8.48179e-005
1186 640395600.000000 351.997500 8.48775e-005
1187 640395680.000000 352.151500 8.48775e-005
1188 640395760.000000 352.309000 8.48179e-005
1189 640395840.000000 352.460000 8.48179e-005
1190 640395920.000000 352.615500 8.47583e-005
1191 640396000.000000 352.770500 8.47583e-005
1192 640396080.000000 352.924500 8.47583e-005
1193 640396160.000000 353.081000 8.47285e-005
1194 640396240.000000 353.235500 8.47583e-005
1195 640396320.000000 353.390000 8.47285e-005
1196 640396400.000000 353.546500 8.47583e-005
1197 640396480.000000 353.700500 8.46987e-005
1198 640396560.000000 353.854500 8.46987e-005
1199 640396640.000000 354.012000 8.47583e-005
1200 640396720.000000 354.164000 8.46689e-005
1201 640396800.000000 354.323500 8.47285e-005
1202 640396880.000000 354.476500 8.46391e-005
1203 640396960.000000 354.636000 8.46987e-005
1204 640397040.000000 354.790000 8.46093e-005
1205 640397120.000000 354.945500 8.45795e-005
1206 640397200.000000 355.103000 8.46391e-005
1207 640397280.000000 355.255500 8.45795e-005
1208 640397360.000000 355.413500 8.46391e-005
1209 640397440.000000 355.566000 8.45795e-005
1210 640397520.000000 355.721000 8.45199e-005
1211 640397600.000000 355.876500 8.45497e-005
1212 640397680.000000 356.030500 8.449e-005
1213 640397760.000000 356.185500 8.45199e-005
1214 640397840.000000 356.342500 8.46093e-005
1215 640397920.000000 356.493500 8.449e-005
1216 640398000.000000 356.650500 8.45795e-005
1217 640398080.000000 356.803500 8.44602e-005
1218 640398160.000000 356.961500 8.45199e-005
1219 640398240.000000 357.118000 8.449e-005
1220 640398320.000000 357.271500 8.45199e-005
1221 640398400.000000 357.425000 8.449e-005
1222 640398480.000000 357.581000 8.44006e-005
1223 640398560.000000 357.736500 8.45199e-005
1224 640398640.000000 357.891500 8.45199e-005
1225 640398720.000000 358.043000 8.45199e-005
1226 640398800.000000 358.203000 8.449e-005
1227 640398880.000000 358.358500 8.44602e-005
1228 640398960.000000 358.508000 8.44304e-005
1229 640399040.000000 358.664000 8.4341e-005
1230 640399120.000000 358.820500 8.43708e-005
1231 640399200.000000 358.977500 8.43708e-005
1232 640399280.000000 359.131000 8.4341e-005
1233 640399360.000000 359.284500 8.44006e-005
1234 640399440.000000 359.444000 8.43112e-005
1235 640399520.000000 359.602000 8.43112e-005
1236 640399600.000000 359.755000 8.43112e-005
1237 640399680.000000 359.909000 8.42218e-005
1238 640399760.000000 360.065000 8.42516e-005
1239 640399840.000000 360.224500 8.4192e-005
1240 640399920.000000 360.376500 8.42814e-005
1241 640400000.000000 360.532500 8.4192e-005
1242 640400080.000000 360.686500 8.42218e-005
1243 640400160.000000 360.842000 8.42516e-005
1244 640400240.000000 360.997000 8.4192e-005
1245 640400320.000000 361.151500 8.4192e-005
1246 640400400.000000 361.303500 8.4192e-005
1247 640400480.000000 361.462000 8.42218e-005
1248 640400560.000000 361.614000 8.42516e-005
1249 640400640.000000 361.771500 8.41324e-005
1250 640400720.000000 361.928000 8.41026e-005
1251 640400800.000000 362.080500 8.41026e-005
1252 640400880.000000 362.238500 8.41324e-005
1253 640400960.000000 362.393500 8.41026e-005
1254 640401040.000000 362.549500 8.40728e-005
1255 640401120.000000 362.703000 8.4192e-005
1256 640401200.000000 362.858000 8.41026e-005
1257 640401280.000000 363.012500 8.41026e-005
1258 640401360.000000 363.168500 8.41622e-005
1259 640401440.000000 363.320500 8.41324e-005
1260 640401520.000000 363.479500 8.41026e-005
1261 640401600.000000 363.631500 8.40728e-005
1262 640401680.000000 363.789000 8.39834e-005
1263 640401760.000000 363.944000 8.41026e-005
1264 640401840.000000 364.105500 8.40728e-005
1265 640401920.000000 364.252500 8.39238e-005
1266 640402000.000000 364.408500 8.39834e-005
1267 640402080.000000 364.566000 8.4043e-005
1268 640402160.000000 364.721000 8.39834e-005
1269 640402240.000000 364.878000 8.39834e-005
1270 640402320.000000 365.036500 8.39238e-005
1271 640402400.000000 365.189500 8.39238e-005
1272 640402480.000000 365.343500 8.39238e-005
1273 640402560.000000 365.501500 8.3894e-005
1274 640402640.000000 365.654500 8.3894e-005
1275 640402720.000000 365.809000 8.38344e-005
1276 640402800.000000 365.962000 8.37748e-005
1277 640402880.000000 366.119000 8.3894e-005
1278 640402960.000000 366.276000 8.38344e-005
1279 640403040.000000 366.426500 8.38344e-005
1280 640403120.000000 366.581500 8.38642e-005
1281 640403200.000000 366.738500 8.38046e-005
1282 640403280.000000 366.895000 8.38046e-005
1283 640403360.000000 367.048500 8.36854e-005
1284 640403440.000000 367.200500 8.36854e-005
1285 640403520.000000 367.360500 8.36854e-005
1286 640403600.000000 367.517000 8.36854e-005
1287 640403680.000000 367.669000 8.37152e-005
1288 640403760.000000 367.824000 8.36556e-005
1289 640403840.000000 367.977000 8.36854e-005
1290 640403920.000000 368.134500 8.36258e-005
1291 640404000.000000 368.289000 8.35364e-005
1292 640404080.000000 368.443000 8.36258e-005
1293 640404160.000000 368.599000 8.35662e-005
1294 640404240.000000 368.754500 8.3596e-005
1295 640404320.000000 368.907500 8.35364e-005
1296 640404400.000000 369.064000 8.35066e-005
1297 640404480.000000 369.216000 8.35066e-005
1298 640404560.000000 369.376500 8.34768e-005
1299 640404640.000000 369.529500 8.34768e-005
1300 640404720.000000 369.686500 8.35066e-005
1301 640404800.000000 369.844000 8.33874e-005
1302 640404881.000000 369.998000 8.34768e-005
1303 640404960.000000 370.157500 8.33576e-005
1304 640405040.000000 370.309000 8.34768e-005
1305 640405120.000000 370.464500 8.33874e-005
1306 640405200.000000 370.619500 8.33874e-005
1307 640405280.000000 370.776000 8.33576e-005
1308 640405360.000000 370.931500 8.33576e-005
1309 640405440.000000 371.086500 8.33576e-005
1310 640405520.000000 371.238500 8.32682e-005
1311 640405600.000000 371.397000 8.33278e-005
1312 640405680.000000 371.548000 8.33576e-005
1313 640405760.000000 371.704500 8.33874e-005
1314 640405840.000000 371.860000 8.32682e-005
1315 640405920.000000 372.014000 8.3298e-005
1316 640406000.000000 372.172500 8.3298e-005
1317 640406080.000000 372.327000 8.32384e-005
1318 640406160.000000 372.481000 8.32682e-005
1319 640406240.000000 372.638000 8.33278e-005
1320 640406320.000000 372.793000 8.32085e-005
1321 640406400.000000 372.948000 8.32384e-005
1322 640406480.000000 373.101500 8.31489e-005
1323 640406560.000000 373.256500 8.31191e-005
1324 640406640.000000 373.414000 8.31191e-005
1325 640406720.000000 373.566500 8.31191e-005
1326 640406800.000000 373.721000 8.31787e-005
1327 640406880.000000 373.877000 8.31191e-005
1328 640406960.000000 374.028500 8.30893e-005
1329 640407040.000000 374.186500 8.31489e-005
1330 640407120.000000 374.341500 8.30893e-005
1331 640407200.000000 374.496000 8.30595e-005
1332 640407280.000000 374.655500 8.30595e-005
1333 640407360.000000 374.809500 8.30893e-005
1334 640407440.000000 374.964500 8.30893e-005
1335 640407520.000000 375.118000 8.29701e-005
1336 640407600.000000 375.275500 8.30595e-005
1337 640407680.000000 375.430500 8.29701e-005
1338 640407760.000000 375.585000 8.29403e-005
1339 640407840.000000 375.742500 8.29701e-005
1340 640407920.000000 375.896500 8.29999e-005
1341 640408000.000000 376.051500 8.29701e-005
1342 640408080.000000 376.207000 8.29105e-005
1343 640408160.000000 376.361500 8.29105e-005
1344 640408240.000000 376.517000 8.28211e-005
1345 640408320.000000 376.673000 8.29403e-005
1346 640408400.000000 376.824000 8.28509e-005
1347 640408480.000000 376.982000 8.28509e-005
1348 640408560.000000 377.135500 8.28807e-005
1349 640408640.000000 377.293000 8.27913e-005
1350 640408720.000000 377.447500 8.28509e-005
1351 640408800.000000 377.603000 8.27317e-005
1352 640408880.000000 377.758500 8.27913e-005
1353 640408960.000000 377.913500 8.27615e-005
1354 640409040.000000 378.067500 8.26721e-005
1355 640409120.000000 378.224000 8.27615e-005
1356 640409200.000000 378.374500 8.26721e-005
1357 640409280.000000 378.532500 8.26721e-005
1358 640409360.000000 378.686000 8.27913e-005
1359 640409440.000000 378.842000 8.26423e-005
1360 640409520.000000 378.998500 8.27019e-005
1361 640409600.000000 379.150500 8.26423e-005
1362 640409680.000000 379.304500 8.25827e-005
1363 640409760.000000 379.462500 8.26721e-005
1364 640409840.000000 379.617500 8.26721e-005
1365 640409920.000000 379.772000 8.27615e-005
1366 640410000.000000 379.928000 8.25827e-005
1367 640410080.000000 380.087000 8.25231e-005
1368 640410160.000000 380.243500 8.25827e-005
1369 640410240.000000 380.394500 8.25827e-005
1370 640410320.000000 380.550500 8.25827e-005
1371 640410400.000000 380.706500 8.25231e-005
1372 640410480.000000 380.864000 8.25529e-005
1373 640410560.000000 381.017000 8.25827e-005
1374 640410640.000000 381.169500 8.25231e-005
1375 640410720.000000 381.330000 8.25231e-005
1376 640410800.000000 381.484500 8.25529e-005
1377 640410880.000000 381.637000 8.24635e-005
1378 640410960.000000 381.790500 8.25827e-005
1379 640411040.000000 381.945000 8.24635e-005
1380 640411120.000000 382.100000 8.24933e-005
1381 640411200.000000 382.257000 8.24039e-005
1382 640411280.000000 382.412500 8.24337e-005
1383 640411360.000000 382.567500 8.24635e-005
1384 640411440.000000 382.725000 8.24039e-005
1385 640411520.000000 382.879500 8.24039e-005
1386 640411600.000000 383.034000 8.23741e-005
1387 640411680.000000 383.187500 8.24039e-005
1388 640411760.000000 383.344500 8.23741e-005
1389 640411840.000000 383.497500 8.23443e-005
1390 640411920.000000 383.654000 8.23145e-005
1391 640412000.000000 383.809500 8.23145e-005
1392 640412080.000000 383.963500 8.23443e-005
1393 640412160.000000 384.118000 8.22847e-005
1394 640412240.000000 384.274500 8.23443e-005
1395 640412320.000000 384.426500 8.22847e-005
1396 640412400.000000 384.596500 8.23443e-005
1397 640412480.000000 384.748000 8.22847e-005
1398 640412560.000000 384.899000 8.22847e-005
1399 640412640.000000 385.052500 8.22549e-005
1400 640412720.000000 385.205000 8.23145e-005
1401 640412800.000000 385.363500 8.23145e-005
1402 640412880.000000 385.516500 8.22549e-005
1403 640412960.000000 385.673500 8.22549e-005
1404 640413040.000000 385.828500 8.22251e-005
1405 640413120.000000 385.981000 8.21655e-005
1406 640413200.000000 386.140000 8.21357e-005
1407 640413280.000000 386.293000 8.21059e-005
1408 640413360.000000 386.449000 8.21357e-005
1409 640413440.000000 386.603000 8.21357e-005
1410 640413520.000000 386.757000 8.21059e-005
1411 640413600.000000 386.913000 8.21357e-005
1412 640413680.000000 387.067000 8.21655e-005
1413 640413760.000000 387.221500 8.20761e-005
1414 640413840.000000 387.380000 8.20761e-005
1415 640413920.000000 387.532000 8.20165e-005
1416 640414000.000000 387.687500 8.20463e-005
1417 640414080.000000 387.844000 8.21059e-005
1418 640414160.000000 388.000500 8.20165e-005
1419 640414240.000000 388.154000 8.20463e-005
1420 640414320.000000 388.307000 8.1927e-005
1421 640414400.000000 388.464000 8.20165e-005
1422 640414480.000000 388.616500 8.19867e-005
1423 640414560.000000 388.771500 8.19867e-005
1424 640414640.000000 388.927000 8.20165e-005
1425 640414720.000000 389.081500 8.1927e-005
1426 640414800.000000 389.237000 8.1927e-005
1427 640414880.000000 389.391000 8.18674e-005
1428 640414960.000000 389.545500 8.1927e-005
1429 640415040.000000 389.701000 8.1927e-005
1430 640415120.000000 389.858500 8.18972e-005
1431 640415200.000000 390.012000 8.1927e-005
1432 640415280.000000 390.170000 8.18972e-005
1433 640415360.000000 390.323500 8.18674e-005
1434 640415440.000000 390.483000 8.18674e-005
1435 640415520.000000 390.635000 8.18376e-005
1436 640415600.000000 390.791000 8.19569e-005
1437 640415680.000000 390.945000 8.1778e-005
1438 640415760.000000 391.101500 8.18376e-005
1439 640415840.000000 391.257500 8.18674e-005
1440 640415920.000000 391.414000 8.18376e-005
1441 640416000.000000 391.567000 8.18376e-005
1442 640416080.000000 391.725500 8.18078e-005
1443 640416160.000000 391.878000 8.18376e-005
1444 640416240.000000 392.034000 8.18078e-005
1445 640416320.000000 392.187000 8.18376e-005
1446 640416400.000000 392.341500 8.1778e-005
1447 640416481.000000 392.497500 8.1778e-005
1448 640416560.000000 392.655000 8.1778e-005
1449 640416640.000000 392.810500 8.18078e-005
1450 640416720.000000 392.961500 8.17482e-005
1451 640416800.000000 393.117000 8.18078e-005
1452 640416880.000000 393.276500 8.17184e-005
1453 640416960.000000 393.428500 8.18078e-005
1454 640417040.000000 393.585000 8.17482e-005
1455 640417120.000000 393.741000 8.1778e-005
1456 640417200.000000 393.894000 8.18078e-005
1457 640417280.000000 394.051500 8.17184e-005
1458 640417360.000000 394.205500 8.16886e-005
1459 640417440.000000 394.357000 8.16886e-005
1460 640417520.000000 394.514000 8.16886e-005
1461 640417600.000000 394.669500 8.17184e-005
1462 640417680.000000 394.823500 8.16886e-005
1463 640417760.000000 394.979000 8.17184e-005
1464 640417840.000000 395.134000 8.17184e-005
1465 640417920.000000 395.289000 8.16588e-005
1466 640418000.000000 395.445500 8.16886e-005
1467 640418080.000000 395.600500 8.16588e-005
1468 640418160.000000 395.756000 8.16886e-005
1469 640418240.000000 395.909500 8.15992e-005
1470 640418320.000000 396.069500 8.15992e-005
1471 640418400.000000 396.221500 8.15694e-005
1472 640418480.000000 396.378000 8.15992e-005
1473 640418560.000000 396.533000 8.16588e-005
1474 640418640.000000 396.687500 8.15992e-005
1475 640418720.000000 396.843500 8.15992e-005
1476 640418800.000000 396.998500 8.15396e-005
1477 640418880.000000 397.149500 8.15396e-005
1478 640418960.000000 397.307000 8.15694e-005
1479 640419040.000000 397.460000 8.14502e-005
1480 640419120.000000 397.618500 8.148e-005
1481 640419200.000000 397.772000 8.15396e-005
1482 640419280.000000 397.928500 8.15694e-005
1483 640419360.000000 398.083500 8.15396e-005
1484 640419440.000000 398.239500 8.148e-005
1485 640419520.000000 398.395500 8.14502e-005
1486 640419600.000000 398.549500 8.14204e-005
1487 640419680.000000 398.703500 8.15396e-005
1488 640419760.000000 398.859500 8.13906e-005
1489 640419840.000000 399.014000 8.14502e-005
1490 640419920.000000 399.167500 8.14502e-005
1491 640420000.000000 399.323500 8.15396e-005
1492 640420080.000000 399.476500 8.15396e-005
1493 640420160.000000 399.633000 8.13906e-005
1494 640420240.000000 399.786500 8.148e-005
1495 640420320.000000 399.942500 8.15098e-005
1496 640420400.000000 400.099000 8.14502e-005
1497 640420480.000000 400.255000 8.14204e-005
1498 640420560.000000 400.408500 8.13906e-005
1499 640420640.000000 400.566500 8.13608e-005
1500 640420720.000000 400.719000 8.14204e-005
1501 640420800.000000 400.879000 8.13608e-005
1502 640420880.000000 401.031000 8.13608e-005
1503 640420960.000000 401.187000 8.13906e-005
1504 640421040.000000 401.344000 8.13906e-005
1505 640421120.000000 401.497000 8.14204e-005
1506 640421200.000000 401.652500 8.14502e-005
1507 640421280.000000 401.808000 8.1331e-005
1508 640421360.000000 401.965500 8.13608e-005
1509 640421440.000000 402.119500 8.13608e-005
1510 640421520.000000 402.270500 8.13012e-005
1511 640421600.000000 402.427500 8.13906e-005
1512 640421680.000000 402.580500 8.13608e-005
1513 640421760.000000 402.736500 8.13012e-005
1514 640421840.000000 402.892000 8.13608e-005
1515 640421920.000000 403.045500 8.12714e-005
1516 640422000.000000 403.205500 8.12416e-005
1517 640422080.000000 403.361000 8.12714e-005
1518 640422160.000000 403.512500 8.12714e-005
1519 640422240.000000 403.667500 8.12714e-005
1520 640422320.000000 403.823000 8.11522e-005
1521 640422400.000000 403.980500 8.12714e-005
1522 640422480.000000 404.134000 8.12416e-005
1523 640422560.000000 404.284500 8.11522e-005
1524 640422640.000000 404.443000 8.12416e-005
1525 640422720.000000 404.598000 8.12118e-005
1526 640422800.000000 404.751500 8.1182e-005
1527 640422880.000000 404.908000 8.12118e-005
1528 640422960.000000 405.061000 8.10926e-005
1529 640423040.000000 405.220000 8.11522e-005
1530 640423120.000000 405.374500 8.11224e-005
1531 640423200.000000 405.530500 8.11522e-005
1532 640423280.000000 405.685500 8.10926e-005
1533 640423360.000000 405.841000 8.11224e-005
1534 640423440.000000 405.995000 8.11522e-005
1535 640423520.000000 406.153000 8.10926e-005
1536 640423600.000000 406.303000 8.11522e-005
1537 640423680.000000 406.462000 8.11224e-005
1538 640423760.000000 406.617000 8.11224e-005
1539 640423840.000000 406.773500 8.1182e-005
1540 640423920.000000 406.929000 8.1033e-005
1541 640424000.000000 407.081500 8.11224e-005
1542 640424080.000000 407.238500 8.11522e-005
1543 640424160.000000 407.392000 8.11224e-005
1544 640424240.000000 407.548500 8.10628e-005
1545 640424321.000000 407.703500 8.10926e-005
1546 640424400.000000 407.857000 8.11522e-005
1547 640424480.000000 408.013500 8.10926e-005
1548 640424560.000000 408.169500 8.11224e-005
1549 640424640.000000 408.322500 8.12118e-005
1550 640424720.000000 408.476500 8.11224e-005
1551 640424800.000000 408.632000 8.1182e-005
1552 640424880.000000 408.791000 8.11522e-005
1553 640424960.000000 408.941000 8.11224e-005
1554 640425040.000000 409.095000 8.10926e-005
1555 640425120.000000 409.254000 8.1033e-005
1556 640425200.000000 409.409000 8.10926e-005
1557 640425280.000000 409.560500 8.10628e-005
1558 640425360.000000 409.713000 8.1033e-005
1559 640425440.000000 409.868000 8.10032e-005
1560 640425520.000000 410.026000 8.11224e-005
1561 640425600.000000 410.179000 8.10926e-005
1562 640425680.000000 410.335500 8.10926e-005
1563 640425760.000000 410.490000 8.10926e-005
1564 640425840.000000 410.646000 8.10032e-005
1565 640425920.000000 410.802500 8.11224e-005
1566 640426000.000000 410.956500 8.10926e-005
1567 640426080.000000 411.110500 8.10926e-005
1568 640426160.000000 411.272000 8.11224e-005
1569 640426240.000000 411.422500 8.1033e-005
1570 640426320.000000 411.579000 8.10926e-005
1571 640426400.000000 411.735000 8.10926e-005
1572 640426480.000000 411.887000 8.11522e-005
1573 640426560.000000 412.046500 8.11522e-005
1574 640426640.000000 412.203000 8.11522e-005
1575 640426720.000000 412.356500 8.10926e-005
1576 640426800.000000 412.512000 8.10628e-005
1577 640426880.000000 412.664000 8.1033e-005
1578 640426960.000000 412.822500 8.11224e-005
1579 640427040.000000 412.975000 8.10628e-005
1580 640427120.000000 413.132000 8.10032e-005
1581 640427200.000000 413.285500 8.1033e-005
1582 640427280.000000 413.441500 8.10628e-005
1583 640427360.000000 413.599000 8.10032e-005
1584 640427440.000000 413.752500 8.10032e-005
1585 640427520.000000 413.906500 8.1033e-005
1586 640427600.000000 414.062000 8.09734e-005
1587 640427680.000000 414.217000 8.1033e-005
1588 640427760.000000 414.371500 8.10032e-005
1589 640427840.000000 414.527000 8.09436e-005
1590 640427920.000000 414.679500 8.09734e-005
1591 640428000.000000 414.836500 8.09734e-005
1592 640428080.000000 414.990000 8.09734e-005
1593 640428160.000000 415.146500 8.10032e-005
1594 640428240.000000 415.301000 8.09436e-005
1595 640428320.000000 415.455500 8.09436e-005
1596 640428400.000000 415.611000 8.09138e-005
1597 640428480.000000 415.769000 8.10032e-005
1598 640428560.000000 415.925500 8.10032e-005
1599 640428640.000000 416.080500 8.09734e-005
1600 640428720.000000 416.230000 8.10032e-005
1601 640428800.000000 416.387500 8.0884e-005
1602 640428880.000000 416.540500 8.10032e-005
1603 640428960.000000 416.697500 8.0884e-005
1604 640429040.000000 416.854500 8.09436e-005
1605 640429120.000000 417.006500 8.09734e-005
1606 640429200.000000 417.166500 8.0884e-005
1607 640429280.000000 417.324000 8.10032e-005
1608 640429360.000000 417.475000 8.08542e-005
1609 640429440.000000 417.628000 8.09734e-005
1610 640429520.000000 417.783500 8.09436e-005
1611 640429600.000000 417.938500 8.10032e-005
1612 640429680.000000 418.095500 8.1033e-005
1613 640429760.000000 418.250500 8.09436e-005
1614 640429840.000000 418.404500 8.09436e-005
1615 640429920.000000 418.560000 8.10032e-005
1616 640430000.000000 418.716500 8.09436e-005
1617 640430080.000000 418.871500 8.09138e-005
1618 640430160.000000 419.022500 8.09138e-005
1619 640430240.000000 419.181000 8.09436e-005
1620 640430320.000000 419.335000 8.09436e-005
1621 640430400.000000 419.488500 8.09734e-005
1622 640430480.000000 419.645500 8.1033e-005
1623 640430560.000000 419.797000 8.0884e-005
1624 640430640.000000 419.954500 8.09436e-005
1625 640430720.000000 420.107500 8.0884e-005
1626 640430800.000000 420.263000 8.09436e-005
1627 640430880.000000 420.416500 8.0884e-005
1628 640430960.000000 420.572500 8.0884e-005
1629 640431040.000000 420.730000 8.0884e-005
1630 640431120.000000 420.884500 8.09138e-005
1631 640431200.000000 421.040500 8.0884e-005
1632 640431280.000000 421.195500 8.08542e-005
1633 640431360.000000 421.350500 8.0884e-005
1634 640431440.000000 421.506000 8.0884e-005
1635 640431520.000000 421.663500 8.08542e-005
1636 640431600.000000 421.817000 8.09138e-005
1637 640431680.000000 421.974500 8.0884e-005
1638 640431760.000000 422.128500 8.09138e-005
1639 640431840.000000 422.283000 8.09436e-005
1640 640431920.000000 422.439500 8.09138e-005
1641 640432000.000000 422.593000 8.0884e-005
1642 640432080.000000 422.751000 8.08542e-005
1643 640432160.000000 422.903000 8.09436e-005
1644 640432240.000000 423.060500 8.0884e-005
1645 640432320.000000 423.213500 8.08542e-005
1646 640432400.000000 423.369500 8.0884e-005
1647 640432480.000000 423.524000 8.09138e-005
1648 640432560.000000 423.678000 8.0884e-005
1649 640432640.000000 423.831500 8.09436e-005
1650 640432720.000000 423.988500 8.09138e-005
1651 640432800.000000 424.141500 8.08542e-005
1652 640432880.000000 424.297500 8.08542e-005
1653 640432960.000000 424.455000 8.07946e-005
1654 640433040.000000 424.609000 8.09436e-005
1655 640433120.000000 424.763500 8.0884e-005
1656 640433200.000000 424.916000 8.0884e-005
1657 640433280.000000 425.072500 8.08244e-005
1658 640433360.000000 425.226000 8.09138e-005
1659 640433440.000000 425.380500 8.08244e-005
1660 640433520.000000 425.539000 8.08542e-005
1661 640433600.000000 425.692500 8.07946e-005
1662 640433680.000000 425.848500 8.08244e-005
1663 640433760.000000 426.003500 8.0884e-005
1664 640433840.000000 426.158500 8.08542e-005
1665 640433920.000000 426.313000 8.08542e-005
1666 640434000.000000 426.470000 8.08542e-005
1667 640434080.000000 426.623000 8.0735e-005
1668 640434160.000000 426.780000 8.08542e-005
1669 640434240.000000 426.936000 8.08542e-005
1670 640434320.000000 427.091000 8.08542e-005
1671 640434400.000000 427.248000 8.0884e-005
1672 640434480.000000 427.400500 8.0884e-005
1673 640434560.000000 427.558500 8.08244e-005
1674 640434640.000000 427.714000 8.08244e-005
1675 640434720.000000 427.867000 8.0884e-005
1676 640434800.000000 428.024500 8.08542e-005
1677 640434880.000000 428.175000 8.08542e-005
1678 640434960.000000 428.334000 8.09138e-005
1679 640435040.000000 428.488500 8.08542e-005
1680 640435120.000000 428.643500 8.08542e-005
1681 640435200.000000 428.798500 8.08542e-005
1682 640435280.000000 428.950000 8.08542e-005
1683 640435360.000000 429.108500 8.08542e-005
1684 640435440.000000 429.261500 8.08542e-005
1685 640435520.000000 429.418000 8.09436e-005
1686 640435600.000000 429.572500 8.08542e-005
1687 640435680.000000 429.725000 8.0884e-005
1688 640435760.000000 429.880000 8.09436e-005
1689 640435840.000000 430.037500 8.08244e-005
1690 640435920.000000 430.187500 8.07946e-005
1691 640436000.000000 430.344500 8.07946e-005
1692 640436080.000000 430.500000 8.07946e-005
1693 640436160.000000 430.654500 8.08542e-005
1694 640436240.000000 430.808500 8.08244e-005
1695 640436320.000000 430.963500 8.07648e-005
1696 640436400.000000 431.122500 8.07946e-005
1697 640436480.000000 431.278500 8.08244e-005
1698 640436560.000000 431.430500 8.08542e-005
1699 640436640.000000 431.585000 8.08244e-005
1700 640436720.000000 431.741500 8.08244e-005
1701 640436800.000000 431.900000 8.07648e-005
1702 640436880.000000 432.052000 8.07946e-005
1703 640436960.000000 432.205500 8.08542e-005
1704 640437040.000000 432.364000 8.07648e-005
1705 640437120.000000 432.516500 8.0884e-005
1706 640437200.000000 432.674000 8.0735e-005
1707 640437280.000000 432.829000 8.07052e-005
1708 640437360.000000 432.983000 8.07648e-005
1709 640437440.000000 433.142000 8.07946e-005
1710 640437520.000000 433.295000 8.07648e-005
1711 640437600.000000 433.452500 8.07052e-005
1712 640437680.000000 433.604500 8.0735e-005
1713 640437760.000000 433.760500 8.07052e-005
1714 640437840.000000 433.915500 8.0735e-005
1715 640437920.000000 434.068000 8.0735e-005
1716 640438000.000000 434.224000 8.07052e-005
1717 640438080.000000 434.379000 8.07946e-005
1718 640438160.000000 434.533500 8.07052e-005
1719 640438240.000000 434.688500 8.07052e-005
1720 640438320.000000 434.845000 8.07052e-005
1721 640438400.000000 434.997500 8.07052e-005
1722 640438480.000000 435.154500 8.0735e-005
1723 640438560.000000 435.306500 8.07648e-005
1724 640438640.000000 435.464500 8.08244e-005
1725 640438720.000000 435.620000 8.07648e-005
1726 640438800.000000 435.773500 8.07946e-005
1727 640438880.000000 435.931500 8.0735e-005
1728 640438960.000000 436.084500 8.0735e-005
1729 640439040.000000 436.242500 8.07946e-005
1730 640439120.000000 436.395500 8.07946e-005
1731 640439200.000000 436.550500 8.07052e-005
1732 640439280.000000 436.705500 8.07052e-005
1733 640439360.000000 436.862000 8.06754e-005
1734 640439440.000000 437.017000 8.06456e-005
1735 640439520.000000 437.171500 8.06754e-005
1736 640439600.000000 437.327500 8.0735e-005
1737 640439680.000000 437.482000 8.06456e-005
1738 640439760.000000 437.636000 8.06754e-005
1739 640439840.000000 437.791500 8.08244e-005
1740 640439920.000000 437.949000 8.07052e-005
1741 640440000.000000 438.100000 8.07052e-005
1742 640440080.000000 438.257500 8.07052e-005
1743 640440160.000000 438.413000 8.07052e-005
1744 640440240.000000 438.568000 8.07052e-005
1745 640440320.000000 438.722500 8.06456e-005
1746 640440400.000000 438.875500 8.0735e-005
1747 640440480.000000 439.031500 8.06754e-005
1748 640440560.000000 439.187500 8.07052e-005
1749 640440640.000000 439.340000 8.0735e-005
1750 640440720.000000 439.496500 8.06456e-005
1751 640440800.000000 439.650500 8.06157e-005
1752 640440880.000000 439.806000 8.06754e-005
1753 640440960.000000 439.961000 8.06754e-005
1754 640441040.000000 440.113000 8.06456e-005
1755 640441120.000000 440.269500 8.05859e-005
1756 640441200.000000 440.422500 8.06754e-005
1757 640441280.000000 440.580000 8.06157e-005
1758 640441360.000000 440.733500 8.0735e-005
1759 640441440.000000 440.889500 8.07052e-005
1760 640441520.000000 441.046000 8.06754e-005
1761 640441600.000000 441.200500 8.06157e-005
1762 640441680.000000 441.357000 8.05859e-005
1763 640441760.000000 441.510500 8.06456e-005
1764 640441840.000000 441.665000 8.06754e-005
1765 640441920.000000 441.821500 8.06754e-005
1766 640442000.000000 441.978500 8.06456e-005
1767 640442080.000000 442.131000 8.06456e-005
1768 640442160.000000 442.290000 8.06456e-005
1769 640442240.000000 442.442000 8.06754e-005
1770 640442320.000000 442.600000 8.06754e-005
1771 640442400.000000 442.756000 8.06456e-005
1772 640442480.000000 442.908000 8.06157e-005
1773 640442560.000000 443.064500 8.06157e-005
1774 640442640.000000 443.219000 8.06157e-005
1775 640442720.000000 443.377500 8.06157e-005
1776 640442800.000000 443.539500 8.06157e-005
1777 640442880.000000 443.683000 8.05859e-005
1778 640442960.000000 443.842000 8.06157e-005
1779 640443040.000000 443.994500 8.05561e-005
1780 640443120.000000 444.151500 8.05859e-005
1781 640443200.000000 444.305000 8.06157e-005
1782 640443280.000000 444.459000 8.06157e-005
1783 640443360.000000 444.614500 8.06754e-005
1784 640443440.000000 444.770500 8.06754e-005
1785 640443520.000000 444.922500 8.05561e-005
1786 640443600.000000 445.080500 8.06754e-005
1787 640443680.000000 445.232500 8.06456e-005
1788 640443760.000000 445.387000 8.06754e-005
1789 640443840.000000 445.542000 8.06157e-005
1790 640443920.000000 445.695000 8.05561e-005
1791 640444000.000000 445.852500 8.05859e-005
1792 640444080.000000 446.008000 8.06157e-005
1793 640444160.000000 446.162000 8.05859e-005
1794 640444240.000000 446.319500 8.06157e-005
1795 640444320.000000 446.472000 8.06157e-005
1796 640444400.000000 446.630000 8.05859e-005
1797 640444480.000000 446.785000 8.06456e-005
1798 640444560.000000 446.938500 8.06754e-005
1799 640444640.000000 447.098000 8.06157e-005
1800 640444720.000000 447.250500 8.06157e-005
1801 640444800.000000 447.407500 8.05561e-005
1802 640444880.000000 447.560000 8.06157e-005
1803 640444960.000000 447.714500 8.05859e-005
1804 640445040.000000 447.870500 8.05561e-005
1805 640445120.000000 448.025000 8.06456e-005
1806 640445200.000000 448.181000 8.05263e-005
1807 640445280.000000 448.337500 8.06157e-005
1808 640445360.000000 448.492500 8.06157e-005
1809 640445440.000000 448.647000 8.05561e-005
1810 640445520.000000 448.804000 8.05561e-005
1811 640445600.000000 448.958500 8.04965e-005
1812 640445680.000000 449.115000 8.05263e-005
1813 640445760.000000 449.265500 8.05561e-005
1814 640445840.000000 449.424500 8.05859e-005
1815 640445920.000000 449.578500 8.05859e-005
1816 640446000.000000 449.732000 8.04667e-005
1817 640446080.000000 449.888500 8.04965e-005
1818 640446160.000000 450.040000 8.04071e-005
1819 640446240.000000 450.197500 8.04667e-005
1820 640446320.000000 450.350500 8.05859e-005
1821 640446400.000000 450.505000 8.05859e-005
1822 640446480.000000 450.659500 8.04667e-005
1823 640446560.000000 450.816500 8.04071e-005
1824 640446640.000000 450.973000 8.04071e-005
1825 640446720.000000 451.127500 8.04965e-005
1826 640446800.000000 451.283500 8.05263e-005
1827 640446880.000000 451.437500 8.05561e-005
1828 640446960.000000 451.592500 8.04965e-005
1829 640447040.000000 451.748000 8.03773e-005
1830 640447120.000000 451.904500 8.03773e-005
1831 640447200.000000 452.056000 8.02879e-005
1832 640447280.000000 452.214500 8.03773e-005
1833 640447360.000000 452.368500 8.04369e-005
1834 640447440.000000 452.526000 8.04369e-005
1835 640447520.000000 452.678500 8.04071e-005
1836 640447600.000000 452.831000 8.04071e-005
1837 640447680.000000 452.989500 8.03773e-005
1838 640447760.000000 453.146500 8.02879e-005
1839 640447840.000000 453.299500 8.03773e-005
1840 640447920.000000 453.455000 8.03773e-005
1841 640448000.000000 453.608500 8.04369e-005
1842 640448080.000000 453.768500 8.04071e-005
1843 640448160.000000 453.922500 8.03773e-005
1844 640448240.000000 454.077000 8.04071e-005
1845 640448320.000000 454.231500 8.03773e-005
1846 640448400.000000 454.385000 8.03773e-005
1847 640448480.000000 454.539500 8.04071e-005
1848 640448560.000000 454.694000 8.04071e-005
1849 640448640.000000 454.846000 8.04071e-005
1850 640448720.000000 455.004500 8.03177e-005
1851 640448800.000000 455.157000 8.03177e-005
1852 640448880.000000 455.315000 8.02581e-005
1853 640448960.000000 455.467000 8.03773e-005
1854 640449040.000000 455.622500 8.03773e-005
1855 640449120.000000 455.778500 8.03177e-005
1856 640449200.000000 455.935500 8.03475e-005
1857 640449280.000000 456.090500 8.03177e-005
1858 640449360.000000 456.246500 8.03773e-005
1859 640449440.000000 456.401500 8.04071e-005
1860 640449520.000000 456.557000 8.02581e-005
1861 640449600.000000 456.713000 8.03177e-005
1862 640449680.000000 456.865500 8.03177e-005
1863 640449760.000000 457.024000 8.03773e-005
1864 640449840.000000 457.177500 8.03773e-005
1865 640449920.000000 457.335000 8.03177e-005
1866 640450000.000000 457.488500 8.02879e-005
1867 640450080.000000 457.643000 8.02581e-005
1868 640450160.000000 457.799500 8.02879e-005
1869 640450240.000000 457.955500 8.03177e-005
1870 640450320.000000 458.106000 8.02879e-005
1871 640450400.000000 458.264000 8.02879e-005
1872 640450480.000000 458.416500 8.01091e-005
1873 640450560.000000 458.576500 8.01389e-005
1874 640450640.000000 458.730000 8.01687e-005
1875 640450720.000000 458.885500 8.02581e-005
1876 640450800.000000 459.040500 8.03475e-005
1877 640450880.000000 459.196000 8.01687e-005
1878 640450960.000000 459.353500 8.01389e-005
1879 640451040.000000 459.505500 8.01091e-005
1880 640451120.000000 459.657000 8.01389e-005
1881 640451200.000000 459.815000 8.01687e-005
1882 640451280.000000 459.965500 8.02283e-005
1883 640451360.000000 460.123000 8.01985e-005
1884 640451440.000000 460.275500 8.01389e-005
1885 640451520.000000 460.431000 8.00495e-005
1886 640451600.000000 460.585500 8.00793e-005
1887 640451680.000000 460.740500 8.01091e-005
1888 640451760.000000 460.895000 8.01985e-005
1889 640451840.000000 461.053000 8.01985e-005
1890 640451920.000000 461.206000 8.01687e-005
1891 640452000.000000 461.363500 8.01091e-005
1892 640452080.000000 461.518500 7.99601e-005
1893 640452160.000000 461.673500 8.01389e-005
1894 640452240.000000 461.828500 8.01091e-005
1895 640452320.000000 461.981000 8.00495e-005
1896 640452400.000000 462.139500 8.01985e-005
1897 640452480.000000 462.292500 8.00495e-005
1898 640452560.000000 462.449000 8.00197e-005
1899 640452640.000000 462.604500 7.99005e-005
1900 640452720.000000 462.759500 8.00197e-005
1901 640452800.000000 462.916500 8.00495e-005
1902 640452880.000000 463.071500 8.01091e-005
1903 640452960.000000 463.226500 8.00197e-005
1904 640453040.000000 463.380500 7.99601e-005
1905 640453120.000000 463.537500 7.99601e-005
1906 640453200.000000 463.690000 7.99005e-005
1907 640453280.000000 463.848500 7.99601e-005
1908 640453360.000000 464.001000 8.00197e-005
1909 640453440.000000 464.159500 7.99601e-005
1910 640453520.000000 464.314000 7.99601e-005
1911 640453600.000000 464.469000 7.98707e-005
1912 640453680.000000 464.625500 7.99005e-005
1913 640453760.000000 464.776500 7.99005e-005
1914 640453840.000000 464.933500 7.99005e-005
1915 640453920.000000 465.086500 8.00495e-005
1916 640454000.000000 465.242000 7.99005e-005
1917 640454080.000000 465.397500 7.98707e-005
1918 640454160.000000 465.549500 7.97813e-005
1919 640454240.000000 465.706000 7.99005e-005
1920 640454320.000000 465.861500 7.99601e-005
1921 640454400.000000 466.018000 7.98707e-005
1922 640454480.000000 466.172000 7.98707e-005
1923 640454560.000000 466.329000 7.98409e-005
1924 640454640.000000 466.484000 7.98707e-005
1925 640454720.000000 466.642500 7.98409e-005
1926 640454800.000000 466.793000 7.97813e-005
1927 640454880.000000 466.948000 7.98707e-005
1928 640454960.000000 467.103000 7.98409e-005
1929 640455041.000000 467.261000 7.99005e-005
1930 640455120.000000 467.416000 7.98707e-005
1931 640455200.000000 467.570000 7.98409e-005
1932 640455280.000000 467.729000 7.98111e-005
1933 640455360.000000 467.881000 7.97515e-005
1934 640455440.000000 468.033500 7.98707e-005
1935 640455520.000000 468.192000 7.98409e-005
1936 640455600.000000 468.347000 7.97515e-005
1937 640455680.000000 468.500500 7.97217e-005
1938 640455760.000000 468.657500 7.97217e-005
1939 640455840.000000 468.809000 7.97515e-005
1940 640455920.000000 468.968000 7.97515e-005
1941 640456000.000000 469.120500 7.97217e-005
1942 640456080.000000 469.278500 7.97515e-005
1943 640456160.000000 469.431000 7.96323e-005
1944 640456240.000000 469.585000 7.96919e-005
1945 640456320.000000 469.742000 7.96025e-005
1946 640456400.000000 469.894500 7.96919e-005
1947 640456480.000000 470.050000 7.96025e-005
1948 640456560.000000 470.204000 7.96323e-005
1949 640456640.000000 470.358000 7.96919e-005
1950 640456720.000000 470.513500 7.96621e-005
1951 640456800.000000 470.669500 7.96323e-005
1952 640456880.000000 470.823000 7.96919e-005
1953 640456960.000000 470.981000 7.96025e-005
1954 640457040.000000 471.133000 7.96621e-005
1955 640457120.000000 471.292500 7.96323e-005
1956 640457200.000000 471.444500 7.96323e-005
1957 640457280.000000 471.601500 7.96621e-005
1958 640457360.000000 471.756500 7.96025e-005
1959 640457440.000000 471.911500 7.97217e-005
1960 640457520.000000 472.069000 7.96323e-005
1961 640457600.000000 472.222000 7.96323e-005
1962 640457680.000000 472.375500 7.95429e-005
1963 640457760.000000 472.533000 7.96323e-005
1964 640457840.000000 472.689500 7.96621e-005
1965 640457920.000000 472.844500 7.96025e-005
1966 640458000.000000 472.997500 7.95727e-005
1967 640458080.000000 473.154000 7.96025e-005
1968 640458160.000000 473.311000 7.95727e-005
1969 640458240.000000 473.465000 7.95727e-005
1970 640458320.000000 473.621000 7.96025e-005
1971 640458400.000000 473.775500 7.95727e-005
1972 640458480.000000 473.931000 7.94833e-005
1973 640458560.000000 474.084000 7.94833e-005
1974 640458640.000000 474.237000 7.95429e-005
1975 640458720.000000 474.394500 7.94833e-005
1976 640458800.000000 474.551500 7.95429e-005
1977 640458880.000000 474.703000 7.94833e-005
1978 640458960.000000 474.862500 7.95131e-005
1979 640459040.000000 475.018000 7.94833e-005
1980 640459120.000000 475.168500 7.94833e-005
1981 640459200.000000 475.323000 7.94833e-005
1982 640459280.000000 475.477000 7.94535e-005
1983 640459360.000000 475.632500 7.95131e-005
1984 640459440.000000 475.787000 7.94833e-005
1985 640459520.000000 475.938500 7.95429e-005
1986 640459600.000000 476.097000 7.94833e-005
1987 640459680.000000 476.251500 7.94535e-005
1988 640459760.000000 476.409500 7.94535e-005
1989 640459840.000000 476.564500 7.94535e-005
1990 640459920.000000 476.720500 7.94833e-005
1991 640460000.000000 476.878500 7.95429e-005
1992 640460080.000000 477.032500 7.94237e-005
1993 640460160.000000 477.187500 7.93342e-005
1994 640460240.000000 477.342000 7.92746e-005
1995 640460320.000000 477.496500 7.93939e-005
1996 640460400.000000 477.651500 7.94833e-005
1997 640460480.000000 477.809000 7.94833e-005
1998 640460560.000000 477.962000 7.94535e-005
1999 640460640.000000 478.121000 7.93342e-005
2000 640460720.000000 478.274000 7.93044e-005
2001 640460800.000000 478.430500 7.92746e-005
2002 640460880.000000 478.584000 7.93939e-005
2003 640460960.000000 478.740000 7.94237e-005
2004 640461040.000000 478.896000 7.93939e-005
2005 640461120.000000 479.050500 7.93342e-005
2006 640461200.000000 479.206000 7.92448e-005
2007 640461280.000000 479.361000 7.91852e-005
2008 640461360.000000 479.514500 7.92448e-005
2009 640461440.000000 479.670500 7.93044e-005
2010 640461520.000000 479.825500 7.94237e-005
2011 640461600.000000 479.979000 7.93939e-005
2012 640461680.000000 480.135000 7.9215e-005
2013 640461760.000000 480.286000 7.91554e-005
2014 640461840.000000 480.445000 7.90958e-005
2015 640461920.000000 480.597000 7.92746e-005
2016 640462000.000000 480.752000 7.93044e-005
2017 640462080.000000 480.905500 7.93342e-005
2018 640462160.000000 481.062500 7.91852e-005
2019 640462240.000000 481.217500 7.91256e-005
2020 640462320.000000 481.373000 7.91256e-005
2021 640462400.000000 481.528000 7.91256e-005
2022 640462480.000000 481.686500 7.93342e-005
2023 640462560.000000 481.841500 7.93342e-005
2024 640462640.000000 481.994500 7.92746e-005
2025 640462720.000000 482.149000 7.91256e-005
2026 640462800.000000 482.305500 7.90064e-005
2027 640462880.000000 482.461500 7.91256e-005
2028 640462960.000000 482.616000 7.91554e-005
2029 640463040.000000 482.770500 7.92746e-005
2030 640463120.000000 482.927500 7.92746e-005
2031 640463200.000000 483.080500 7.90958e-005
2032 640463280.000000 483.237500 7.90362e-005
2033 640463360.000000 483.390500 7.9066e-005
2034 640463440.000000 483.545000 7.90958e-005
2035 640463520.000000 483.701000 7.9215e-005
2036 640463600.000000 483.856000 7.92448e-005
2037 640463680.000000 484.014000 7.92448e-005
2038 640463760.000000 484.167500 7.9066e-005
2039 640463840.000000 484.323000 7.89766e-005
2040 640463920.000000 484.477500 7.89766e-005
2041 640464000.000000 484.633000 7.91256e-005
2042 640464080.000000 484.787000 7.92448e-005
2043 640464160.000000 484.943500 7.91256e-005
2044 640464240.000000 485.095500 7.90958e-005
2045 640464320.000000 485.254500 7.8917e-005
2046 640464400.000000 485.405500 7.8917e-005
2047 640464480.000000 485.563000 7.90064e-005
2048 640464560.000000 485.715500 7.9066e-005
2049 640464640.000000 485.869000 7.91256e-005
2050 640464720.000000 486.025500 7.9066e-005
2051 640464800.000000 486.180000 7.8917e-005
2052 640464880.000000 486.336500 7.88872e-005
2053 640464960.000000 486.492000 7.88574e-005
2054 640465040.000000 486.648500 7.90362e-005
2055 640465120.000000 486.803500 7.90362e-005
2056 640465200.000000 486.962000 7.90362e-005
2057 640465280.000000 487.116000 7.89766e-005
2058 640465360.000000 487.273500 7.8917e-005
2059 640465440.000000 487.424500 7.87978e-005
2060 640465520.000000 487.582500 7.88574e-005
2061 640465600.000000 487.736000 7.89468e-005
2062 640465680.000000 487.891000 7.90064e-005
2063 640465760.000000 488.046500 7.8917e-005
2064 640465840.000000 488.202000 7.8917e-005
2065 640465920.000000 488.356000 7.88574e-005
2066 640466000.000000 488.513500 7.88574e-005
2067 640466080.000000 488.665500 7.8917e-005
2068 640466160.000000 488.823500 7.89766e-005
2069 640466240.000000 488.981000 7.88574e-005
2070 640466320.000000 489.132500 7.87978e-005
2071 640466400.000000 489.287000 7.87382e-005
2072 640466480.000000 489.441500 7.87084e-005
2073 640466560.000000 489.597000 7.88276e-005
2074 640466641.000000 489.752500 7.8768e-005
2075 640466720.000000 489.905000 7.8768e-005
2076 640466800.000000 490.061500 7.87978e-005
2077 640466880.000000 490.213500 7.87084e-005
2078 640466960.000000 490.370500 7.8768e-005
2079 640467040.000000 490.525000 7.8768e-005
2080 640467120.000000 490.679500 7.87382e-005
2081 640467200.000000 490.834000 7.87382e-005
2082 640467280.000000 490.989000 7.8619e-005
2083 640467360.000000 491.144500 7.86786e-005
2084 640467440.000000 491.298500 7.86488e-005
2085 640467520.000000 491.454500 7.85892e-005
2086 640467600.000000 491.611000 7.86786e-005
2087 640467680.000000 491.768500 7.86488e-005
2088 640467760.000000 491.923000 7.8619e-005
2089 640467840.000000 492.081000 7.8619e-005
2090 640467920.000000 492.231500 7.87382e-005
2091 640468000.000000 492.390500 7.87382e-005
2092 640468080.000000 492.545500 7.86488e-005
2093 640468160.000000 492.700000 7.86786e-005
2094 640468240.000000 492.857500 7.85892e-005
2095 640468320.000000 493.009000 7.8619e-005
2096 640468400.000000 493.167500 7.86786e-005
2097 640468480.000000 493.320000 7.86786e-005
2098 640468560.000000 493.475000 7.87084e-005
2099 640468640.000000 493.629000 7.86786e-005
2100 640468720.000000 493.785500 7.85594e-005
2101 640468800.000000 493.942000 7.85892e-005
2102 640468880.000000 494.096500 7.85594e-005
2103 640468960.000000 494.251500 7.86786e-005
2104 640469040.000000 494.406500 7.86488e-005
2105 640469120.000000 494.564000 7.86786e-005
2106 640469200.000000 494.718000 7.84998e-005
2107 640469280.000000 494.872500 7.84402e-005
2108 640469360.000000 495.024000 7.847e-005
2109 640469440.000000 495.181000 7.85594e-005
2110 640469520.000000 495.333500 7.8619e-005
2111 640469600.000000 495.491000 7.85594e-005
2112 640469680.000000 495.644000 7.85594e-005
2113 640469760.000000 495.799000 7.84104e-005
2114 640469840.000000 495.955000 7.83508e-005
2115 640469920.000000 496.109500 7.85296e-005
2116 640470000.000000 496.264500 7.847e-005
2117 640470080.000000 496.418500 7.85594e-005
2118 640470160.000000 496.574000 7.84402e-005
2119 640470240.000000 496.729000 7.83508e-005
2120 640470320.000000 496.887500 7.8321e-005
2121 640470400.000000 497.044000 7.83508e-005
2122 640470480.000000 497.198500 7.84104e-005
2123 640470560.000000 497.351000 7.847e-005
2124 640470640.000000 497.510000 7.84104e-005
2125 640470720.000000 497.665000 7.83508e-005
2126 640470800.000000 497.819500 7.82316e-005
2127 640470880.000000 497.976000 7.82614e-005
2128 640470960.000000 498.130000 7.82912e-005
2129 640471040.000000 498.285500 7.84104e-005
2130 640471120.000000 498.441000 7.84402e-005
2131 640471200.000000 498.596000 7.8321e-005
2132 640471280.000000 498.749500 7.82018e-005
2133 640471360.000000 498.907000 7.81422e-005
2134 640471440.000000 499.061000 7.82018e-005
2135 640471520.000000 499.217000 7.83508e-005
2136 640471600.000000 499.371000 7.83806e-005
2137 640471680.000000 499.525000 7.8321e-005
2138 640471760.000000 499.682500 7.8172e-005
2139 640471840.000000 499.834000 7.81422e-005
2140 640471920.000000 499.992500 7.8172e-005
2141 640472000.000000 500.144000 7.8321e-005
2142 640472080.000000 500.301000 7.83508e-005
2143 640472160.000000 500.458500 7.82614e-005
2144 640472240.000000 500.609500 7.8172e-005
2145 640472320.000000 500.766500 7.8172e-005
2146 640472400.000000 500.920000 7.79931e-005
2147 640472480.000000 501.075000 7.80826e-005
2148 640472560.000000 501.228500 7.81422e-005
2149 640472640.000000 501.381500 7.82316e-005
2150 640472720.000000 501.537500 7.82614e-005
2151 640472800.000000 501.695000 7.81422e-005
2152 640472880.000000 501.849500 7.80527e-005
2153 640472960.000000 502.007500 7.80229e-005
2154 640473040.000000 502.161500 7.81124e-005
2155 640473120.000000 502.320500 7.82316e-005
2156 640473200.000000 502.473000 7.82316e-005
2157 640473280.000000 502.625500 7.8172e-005
2158 640473360.000000 502.782000 7.80826e-005
2159 640473440.000000 502.938000 7.81422e-005
2160 640473520.000000 503.096500 7.80826e-005
2161 640473600.000000 503.247500 7.81124e-005
2162 640473680.000000 503.400000 7.82018e-005
2163 640473760.000000 503.559500 7.81422e-005
2164 640473840.000000 503.716000 7.82018e-005
2165 640473920.000000 503.867500 7.80527e-005
2166 640474000.000000 504.022500 7.80527e-005
2167 640474080.000000 504.177500 7.81124e-005
2168 640474160.000000 504.336500 7.81422e-005
2169 640474240.000000 504.489000 7.80527e-005
2170 640474320.000000 504.644000 7.80527e-005
2171 640474400.000000 504.798000 7.80826e-005
2172 640474480.000000 504.953000 7.80826e-005
2173 640474560.000000 505.107500 7.80229e-005
2174 640474640.000000 505.263000 7.80527e-005
2175 640474720.000000 505.415500 7.80826e-005
2176 640474800.000000 505.572500 7.80527e-005
2177 640474880.000000 505.725500 7.79931e-005
2178 640474960.000000 505.883000 7.80229e-005
2179 640475040.000000 506.036500 7.79335e-005
2180 640475120.000000 506.191500 7.79931e-005
2181 640475200.000000 506.346000 7.80527e-005
2182 640475280.000000 506.503000 7.79931e-005
2183 640475360.000000 506.657000 7.80229e-005
2184 640475440.000000 506.813500 7.80229e-005
2185 640475520.000000 506.966500 7.79633e-005
2186 640475600.000000 507.125500 7.80229e-005
2187 640475680.000000 507.279500 7.79037e-005
2188 640475760.000000 507.436500 7.79931e-005
2189 640475840.000000 507.590500 7.79633e-005
2190 640475920.000000 507.747500 7.80229e-005
2191 640476000.000000 507.904000 7.79335e-005
2192 640476080.000000 508.059500 7.79931e-005
2193 640476160.000000 508.213000 7.79633e-005
2194 640476240.000000 508.371500 7.79931e-005
2195 640476320.000000 508.523500 7.79633e-005
2196 640476400.000000 508.680000 7.80229e-005
2197 640476480.000000 508.834000 7.80229e-005
2198 640476560.000000 508.988500 7.80229e-005
2199 640476640.000000 509.145500 7.79037e-005
2200 640476720.000000 509.299000 7.79633e-005
2201 640476800.000000 509.452500 7.79931e-005
2202 640476880.000000 509.610500 7.79931e-005
2203 640476960.000000 509.765000 7.81124e-005
2204 640477040.000000 509.920500 7.79335e-005
2205 640477120.000000 510.074000 7.78143e-005
2206 640477200.000000 510.224500 7.78441e-005
2207 640477280.000000 510.383000 7.79037e-005
2208 640477360.000000 510.532000 7.80527e-005
2209 640477440.000000 510.688500 7.80527e-005
2210 640477520.000000 510.848000 7.80527e-005
2211 640477600.000000 511.003500 7.79931e-005
2212 640477680.000000 511.156500 7.79037e-005
2213 640477760.000000 511.307000 7.79037e-005
2214 640477840.000000 511.465500 7.78739e-005
2215 640477920.000000 511.623000 7.79931e-005
2216 640478000.000000 511.774000 7.79931e-005
2217 640478080.000000 511.930500 7.79931e-005
2218 640478160.000000 512.087500 7.78739e-005
2219 640478240.000000 512.242500 7.78739e-005
2220 640478320.000000 512.399500 7.79633e-005
2221 640478400.000000 512.552000 7.79931e-005
2222 640478480.000000 512.712000 7.79633e-005
2223 640478560.000000 512.864000 7.79931e-005
2224 640478640.000000 513.020500 7.78739e-005
2225 640478720.000000 513.176000 7.78143e-005
2226 640478800.000000 513.328000 7.78739e-005
2227 640478880.000000 513.487500 7.80229e-005
2228 640478960.000000 513.640000 7.79931e-005
2229 640479040.000000 513.796500 7.79037e-005
2230 640479120.000000 513.949500 7.79931e-005
2231 640479200.000000 514.106000 7.78739e-005
2232 640479280.000000 514.262000 7.78441e-005
2233 640479360.000000 514.416000 7.78441e-005
2234 640479440.000000 514.571000 7.79037e-005
2235 640479520.000000 514.725500 7.79335e-005
2236 640479600.000000 514.881500 7.79037e-005
2237 640479680.000000 515.034500 7.78441e-005
2238 640479760.000000 515.191500 7.77845e-005
2239 640479840.000000 515.343500 7.78739e-005
2240 640479920.000000 515.501500 7.79335e-005
2241 640480000.000000 515.656000 7.79037e-005
2242 640480080.000000 515.809500 7.79037e-005
2243 640480160.000000 515.965000 7.78441e-005
2244 640480240.000000 516.118500 7.78441e-005
2245 640480320.000000 516.276000 7.77845e-005
2246 640480400.000000 516.429500 7.78441e-005
2247 640480480.000000 516.584000 7.79037e-005
2248 640480560.000000 516.739000 7.78739e-005
2249 640480640.000000 516.895500 7.78739e-005
2250 640480720.000000 517.052500 7.77845e-005
2251 640480800.000000 517.204500 7.77547e-005
2252 640480880.000000 517.359000 7.79633e-005
2253 640480960.000000 517.517500 7.79633e-005
2254 640481040.000000 517.674000 7.79037e-005
2255 640481120.000000 517.828000 7.78441e-005
2256 640481200.000000 517.981500 7.77845e-005
2257 640481280.000000 518.138000 7.77845e-005
2258 640481360.000000 518.299000 7.78441e-005
2259 640481440.000000 518.450500 7.79037e-005
2260 640481520.000000 518.604000 7.79335e-005
2261 640481600.000000 518.763000 7.78739e-005
2262 640481680.000000 518.918000 7.77845e-005
2263 640481760.000000 519.071500 7.77249e-005
2264 640481840.000000 519.225500 7.77845e-005
2265 640481920.000000 519.379500 7.77547e-005
2266 640482000.000000 519.537000 7.77547e-005
2267 640482080.000000 519.689000 7.78441e-005
2268 640482160.000000 519.845500 7.78441e-005
2269 640482240.000000 520.000000 7.78441e-005
2270 640482320.000000 520.154500 7.77249e-005
2271 640482400.000000 520.309000 7.78739e-005
2272 640482480.000000 520.463500 7.79037e-005
2273 640482560.000000 520.616500 7.79037e-005
2274 640482640.000000 520.774500 7.78739e-005
2275 640482720.000000 520.923500 7.76951e-005
2276 640482800.000000 521.082000 7.77845e-005
2277 640482880.000000 521.234500 7.77845e-005
2278 640482960.000000 521.391500 7.78441e-005
2279 640483040.000000 521.547500 7.78739e-005
2280 640483120.000000 521.700000 7.78143e-005
2281 640483200.000000 521.857500 7.78143e-005
2282 640483280.000000 522.011000 7.77249e-005
2283 640483360.000000 522.168000 7.77845e-005
2284 640483440.000000 522.323500 7.78441e-005
2285 640483520.000000 522.479000 7.78441e-005
2286 640483600.000000 522.634500 7.78739e-005
2287 640483680.000000 522.792000 7.77547e-005
2288 640483760.000000 522.945000 7.77547e-005
2289 640483840.000000 523.103000 7.77547e-005
2290 640483920.000000 523.257000 7.77845e-005
2291 640484000.000000 523.413000 7.78739e-005
2292 640484080.000000 523.568500 7.77547e-005
2293 640484160.000000 523.721000 7.77845e-005
2294 640484240.000000 523.879000 7.77249e-005
2295 640484320.000000 524.032500 7.77845e-005
2296 640484400.000000 524.188500 7.78143e-005
2297 640484480.000000 524.341500 7.78441e-005
2298 640484560.000000 524.493500 7.78441e-005
2299 640484640.000000 524.650500 7.78143e-005
2300 640484720.000000 524.806000 7.78441e-005
2301 640484800.000000 524.962500 7.77547e-005
2302 640484880.000000 525.115500 7.77845e-005
2303 640484960.000000 525.269000 7.77547e-005
2304 640485040.000000 525.422500 7.77249e-005
2305 640485120.000000 525.578000 7.78441e-005
2306 640485200.000000 525.732500 7.78739e-005
2307 640485280.000000 525.890000 7.76951e-005
2308 640485360.000000 526.042000 7.77845e-005
2309 640485440.000000 526.200000 7.77249e-005
2310 640485520.000000 526.353500 7.78441e-005
2311 640485600.000000 526.506000 7.79037e-005
2312 640485680.000000 526.663500 7.77845e-005
2313 640485760.000000 526.820000 7.78441e-005
2314 640485840.000000 526.975000 7.77547e-005
2315 640485920.000000 527.129000 7.77547e-005
2316 640486000.000000 527.285000 7.78441e-005
2317 640486080.000000 527.440500 7.78143e-005
2318 640486160.000000 527.596500 7.78441e-005
2319 640486240.000000 527.752500 7.77547e-005
2320 640486320.000000 527.907500 7.77547e-005
2321 640486400.000000 528.059500 7.76653e-005
2322 640486480.000000 528.219000 7.77547e-005
2323 640486560.000000 528.374000 7.77845e-005
2324 640486640.000000 528.529000 7.77547e-005
2325 640486720.000000 528.684000 7.77845e-005
2326 640486800.000000 528.840000 7.77547e-005
2327 640486880.000000 528.997000 7.77547e-005
2328 640486960.000000 529.150000 7.76951e-005
2329 640487040.000000 529.303000 7.77547e-005
2330 640487120.000000 529.461000 7.79037e-005
2331 640487200.000000 529.616000 7.77845e-005
2332 640487280.000000 529.768500 7.77845e-005
2333 640487360.000000 529.926500 7.77845e-005
2334 640487440.000000 530.079000 7.77547e-005
2335 640487520.000000 530.233500 7.77845e-005
2336 640487600.000000 530.390000 7.76951e-005
2337 640487680.000000 530.544500 7.77845e-005
2338 640487760.000000 530.698000 7.77547e-005
2339 640487840.000000 530.850500 7.77249e-005
2340 640487920.000000 531.008000 7.77249e-005
2341 640488000.000000 531.162500 7.77249e-005
2342 640488080.000000 531.314500 7.78441e-005
2343 640488160.000000 531.472000 7.77845e-005
2344 640488240.000000 531.627000 7.77845e-005
2345 640488320.000000 531.780000 7.77547e-005
2346 640488400.000000 531.933000 7.77547e-005
2347 640488480.000000 532.089000 7.77845e-005
2348 640488560.000000 532.247500 7.76355e-005
2349 640488640.000000 532.400500 7.78143e-005
2350 640488720.000000 532.556500 7.77547e-005
2351 640488800.000000 532.713500 7.77547e-005
2352 640488880.000000 532.868000 7.77249e-005
2353 640488960.000000 533.024500 7.76653e-005
2354 640489040.000000 533.177500 7.77547e-005
2355 640489120.000000 533.337000 7.77547e-005
2356 640489200.000000 533.493500 7.77845e-005
2357 640489280.000000 533.646500 7.78441e-005
2358 640489360.000000 533.803500 7.77845e-005
2359 640489440.000000 533.957500 7.77845e-005
2360 640489520.000000 534.110500 7.77547e-005
2361 640489600.000000 534.267500 7.77845e-005
2362 640489680.000000 534.421500 7.77845e-005
2363 640489760.000000 534.572000 7.76951e-005
2364 640489840.000000 534.730000 7.77845e-005
2365 640489920.000000 534.886000 7.77845e-005
2366 640490000.000000 535.038500 7.77845e-005
2367 640490080.000000 535.194000 7.77547e-005
2368 640490160.000000 535.351500 7.76951e-005
2369 640490240.000000 535.505500 7.78143e-005
2370 640490320.000000 535.656500 7.77249e-005
2371 640490400.000000 535.813500 7.77249e-005
2372 640490480.000000 535.968000 7.78143e-005
2373 640490560.000000 536.120000 7.77845e-005
2374 640490640.000000 536.277500 7.78143e-005
2375 640490720.000000 536.432000 7.77547e-005
2376 640490800.000000 536.588000 7.77845e-005
2377 640490880.000000 536.740500 7.77249e-005
2378 640490960.000000 536.896000 7.77845e-005
2379 640491040.000000 537.054000 7.78441e-005
2380 640491120.000000 537.205500 7.77547e-005
2381 640491200.000000 537.364000 7.77845e-005
2382 640491280.000000 537.521500 7.77547e-005
2383 640491360.000000 537.675000 7.77249e-005
2384 640491440.000000 537.832000 7.77547e-005
2385 640491520.000000 537.986500 7.76951e-005
2386 640491600.000000 538.143500 7.77249e-005
2387 640491680.000000 538.295000 7.77249e-005
2388 640491760.000000 538.448500 7.77547e-005
2389 640491840.000000 538.607500 7.77547e-005
2390 640491920.000000 538.762500 7.77547e-005
2391 640492000.000000 538.916500 7.77845e-005
2392 640492080.000000 539.072500 7.77845e-005
2393 640492160.000000 539.225000 7.77547e-005
2394 640492240.000000 539.383500 7.77547e-005
2395 640492320.000000 539.540000 7.77845e-005
2396 640492400.000000 539.693000 7.78441e-005
2397 640492480.000000 539.848500 7.77249e-005
2398 640492560.000000 540.004000 7.77547e-005
2399 640492640.000000 540.161500 7.77845e-005
2400 640492720.000000 540.314500 7.77547e-005
2401 640492800.000000 540.466500 7.77845e-005
2402 640492880.000000 540.623000 7.77249e-005
2403 640492960.000000 540.774500 7.77845e-005
2404 640493040.000000 540.931000 7.77547e-005
2405 640493120.000000 541.087500 7.78143e-005
2406 640493200.000000 541.238000 7.77845e-005
2407 640493280.000000 541.396000 7.77249e-005
2408 640493360.000000 541.550000 7.77547e-005
2409 640493440.000000 541.702000 7.77249e-005
2410 640493520.000000 541.858500 7.77547e-005
2411 640493600.000000 542.013000 7.77845e-005
2412 640493680.000000 542.170500 7.77249e-005
2413 640493760.000000 542.323500 7.77547e-005
2414 640493840.000000 542.481500 7.77249e-005
2415 640493920.000000 542.638500 7.77249e-005
2416 640494000.000000 542.789500 7.77547e-005
2417 640494080.000000 542.948000 7.77845e-005
2418 640494160.000000 543.103500 7.77547e-005
2419 640494240.000000 543.256500 7.77249e-005
2420 640494320.000000 543.413500 7.77845e-005
2421 640494400.000000 543.569000 7.77845e-005
2422 640494480.000000 543.724000 7.77845e-005
2423 640494560.000000 543.881500 7.77845e-005
2424 640494640.000000 544.037500 7.77547e-005
2425 640494720.000000 544.193500 7.77249e-005
2426 640494800.000000 544.344500 7.76951e-005
2427 640494880.000000 544.501000 7.78441e-005
2428 640494960.000000 544.658000 7.77845e-005
2429 640495040.000000 544.809500 7.77547e-005
2430 640495120.000000 544.967000 7.77249e-005
2431 640495200.000000 545.121500 7.76653e-005
2432 640495280.000000 545.273500 7.76951e-005
2433 640495360.000000 545.430500 7.76951e-005
2434 640495440.000000 545.585000 7.77249e-005
2435 640495520.000000 545.739000 7.76951e-005
2436 640495600.000000 545.893500 7.76951e-005
2437 640495680.000000 546.048500 7.76355e-005
2438 640495760.000000 546.205000 7.77547e-005
2439 640495840.000000 546.355000 7.76653e-005
2440 640495920.000000 546.511000 7.77249e-005
2441 640496000.000000 546.668000 7.76057e-005
2442 640496080.000000 546.823000 7.76057e-005
2443 640496160.000000 546.975500 7.76355e-005
2444 640496240.000000 547.127000 7.76653e-005
2445 640496320.000000 547.285500 7.76951e-005
2446 640496400.000000 547.442500 7.76653e-005
2447 640496480.000000 547.597500 7.76951e-005
2448 640496560.000000 547.754000 7.76355e-005
2449 640496640.000000 547.910500 7.76951e-005
2450 640496720.000000 548.068500 7.76057e-005
2451 640496800.000000 548.221500 7.76355e-005
2452 640496880.000000 548.374500 7.76355e-005
2453 640496960.000000 548.533500 7.76057e-005
2454 640497040.000000 548.684500 7.76057e-005
2455 640497120.000000 548.840500 7.76653e-005
2456 640497200.000000 548.998500 7.76057e-005
2457 640497280.000000 549.150500 7.76355e-005
2458 640497360.000000 549.309000 7.75461e-005
2459 640497440.000000 549.465500 7.75759e-005
2460 640497520.000000 549.617000 7.76355e-005
2461 640497600.000000 549.775500 7.75759e-005
2462 640497680.000000 549.931000 7.75759e-005
2463 640497760.000000 550.083500 7.74865e-005
2464 640497840.000000 550.240000 7.76057e-005
2465 640497920.000000 550.395000 7.75461e-005
2466 640498000.000000 550.551500 7.75163e-005
2467 640498080.000000 550.703000 7.75759e-005
2468 640498160.000000 550.859000 7.75759e-005
2469 640498240.000000 551.015000 7.75759e-005
2470 640498320.000000 551.165000 7.75163e-005
2471 640498400.000000 551.323500 7.75163e-005
2472 640498480.000000 551.480000 7.74567e-005
2473 640498560.000000 551.630500 7.74567e-005
2474 640498640.000000 551.787500 7.75163e-005
2475 640498720.000000 551.937000 7.74865e-005
2476 640498800.000000 552.095500 7.75163e-005
2477 640498880.000000 552.251500 7.74567e-005
2478 640498960.000000 552.405500 7.74567e-005
2479 640499040.000000 552.561500 7.74865e-005
2480 640499120.000000 552.718500 7.73971e-005
2481 640499200.000000 552.877000 7.74865e-005
2482 640499280.000000 553.029500 7.74567e-005
2483 640499360.000000 553.181000 7.74865e-005
2484 640499440.000000 553.338500 7.74567e-005
2485 640499520.000000 553.493500 7.73971e-005
2486 640499600.000000 553.650000 7.74269e-005
2487 640499680.000000 553.803000 7.74567e-005
2488 640499760.000000 553.959000 7.74567e-005
2489 640499840.000000 554.119000 7.74567e-005
2490 640499920.000000 554.272500 7.73971e-005
2491 640500000.000000 554.428000 7.74269e-005
2492 640500080.000000 554.585000 7.73971e-005
2493 640500160.000000 554.738500 7.74567e-005
2494 640500240.000000 554.893000 7.74269e-005
2495 640500320.000000 555.048000 7.73077e-005
2496 640500400.000000 555.201500 7.73971e-005
2497 640500480.000000 555.358500 7.73375e-005
2498 640500560.000000 555.511000 7.73673e-005
2499 640500640.000000 555.665000 7.73971e-005
2500 640500720.000000 555.820500 7.73673e-005
2501 640500800.000000 555.976500 7.73375e-005
2502 640500880.000000 556.129500 7.73077e-005
2503 640500960.000000 556.283500 7.72779e-005
2504 640501040.000000 556.440000 7.72779e-005
2505 640501120.000000 556.592000 7.72779e-005
2506 640501200.000000 556.745500 7.73077e-005
2507 640501280.000000 556.903000 7.72779e-005
2508 640501360.000000 557.055500 7.73673e-005
2509 640501440.000000 557.212000 7.72779e-005
2510 640501520.000000 557.368500 7.72779e-005
2511 640501600.000000 557.521000 7.72481e-005
2512 640501680.000000 557.680000 7.72183e-005
2513 640501760.000000 557.837500 7.72779e-005
2514 640501840.000000 557.992500 7.73375e-005
2515 640501920.000000 558.150000 7.73673e-005
2516 640502000.000000 558.304000 7.71885e-005
2517 640502080.000000 558.461500 7.71587e-005
2518 640502160.000000 558.614000 7.72481e-005
2519 640502240.000000 558.770500 7.71885e-005
2520 640502320.000000 558.928000 7.71885e-005
2521 640502400.000000 559.079000 7.72183e-005
2522 640502480.000000 559.237000 7.71885e-005
2523 640502560.000000 559.395000 7.72481e-005
2524 640502640.000000 559.547000 7.71289e-005
2525 640502720.000000 559.704500 7.72183e-005
2526 640502800.000000 559.855500 7.71885e-005
2527 640502880.000000 560.013500 7.70991e-005
2528 640502960.000000 560.170500 7.71587e-005
2529 640503040.000000 560.322500 7.70991e-005
2530 640503120.000000 560.479500 7.71289e-005
2531 640503200.000000 560.634500 7.70693e-005
2532 640503280.000000 560.790000 7.70693e-005
2533 640503360.000000 560.942000 7.70395e-005
2534 640503440.000000 561.095500 7.70097e-005
2535 640503520.000000 561.249000 7.69799e-005
2536 640503600.000000 561.405000 7.70395e-005
2537 640503680.000000 561.559000 7.70395e-005
2538 640503760.000000 561.713500 7.70097e-005
2539 640503840.000000 561.869000 7.69203e-005
2540 640503920.000000 562.025500 7.70097e-005
2541 640504000.000000 562.179000 7.69203e-005
2542 640504080.000000 562.330500 7.69501e-005
2543 640504160.000000 562.489000 7.68905e-005
2544 640504240.000000 562.646000 7.69203e-005
2545 640504320.000000 562.800500 7.69203e-005
2546 640504400.000000 562.958000 7.69203e-005
2547 640504480.000000 563.109000 7.69203e-005
2548 640504560.000000 563.269000 7.70097e-005
2549 640504640.000000 563.425000 7.68905e-005
2550 640504720.000000 563.581500 7.68905e-005
2551 640504800.000000 563.735500 7.68905e-005
2552 640504880.000000 563.889000 7.69203e-005
2553 640504960.000000 564.048000 7.69203e-005
2554 640505040.000000 564.199500 7.69203e-005
2555 640505120.000000 564.356000 7.69501e-005
2556 640505201.000000 564.513500 7.68309e-005
2557 640505280.000000 564.668500 7.68905e-005
2558 640505360.000000 564.822500 7.68309e-005
2559 640505440.000000 564.979000 7.68011e-005
2560 640505520.000000 565.133500 7.67712e-005
2561 640505600.000000 565.288000 7.68011e-005
2562 640505680.000000 565.443000 7.68011e-005
2563 640505760.000000 565.601500 7.67712e-005
2564 640505840.000000 565.752500 7.67712e-005
2565 640505920.000000 565.907000 7.67414e-005
2566 640506000.000000 566.063000 7.67712e-005
2567 640506080.000000 566.219000 7.67712e-005
2568 640506160.000000 566.370500 7.67116e-005
2569 640506240.000000 566.527000 7.67414e-005
2570 640506320.000000 566.681000 7.6652e-005
2571 640506400.000000 566.835000 7.66222e-005
2572 640506480.000000 566.988000 7.6652e-005
2573 640506560.000000 567.140500 7.6652e-005
2574 640506640.000000 567.298000 7.6652e-005
2575 640506720.000000 567.454000 7.6652e-005
2576 640506800.000000 567.608500 7.65328e-005
2577 640506880.000000 567.765500 7.6652e-005
2578 640506960.000000 567.922500 7.65626e-005
2579 640507040.000000 568.080000 7.65626e-005
2580 640507120.000000 568.232500 7.65924e-005
2581 640507200.000000 568.390000 7.66222e-005
2582 640507280.000000 568.542000 7.65924e-005
2583 640507360.000000 568.699000 7.64732e-005
2584 640507440.000000 568.858000 7.6503e-005
2585 640507520.000000 569.011000 7.65924e-005
2586 640507600.000000 569.166000 7.65328e-005
2587 640507680.000000 569.323000 7.6503e-005
2588 640507760.000000 569.477000 7.65328e-005
2589 640507840.000000 569.632500 7.6503e-005
2590 640507920.000000 569.789000 7.63838e-005
2591 640508000.000000 569.945000 7.64732e-005
2592 640508080.000000 570.100500 7.64732e-005
2593 640508160.000000 570.253000 7.6503e-005
2594 640508240.000000 570.411500 7.64732e-005
2595 640508320.000000 570.564000 7.64136e-005
2596 640508400.000000 570.720000 7.64434e-005
2597 640508480.000000 570.877000 7.63838e-005
2598 640508560.000000 571.026500 7.64434e-005
2599 640508640.000000 571.184000 7.64434e-005
2600 640508720.000000 571.340000 7.63242e-005
2601 640508800.000000 571.493000 7.6354e-005
2602 640508880.000000 571.647500 7.63242e-005
2603 640508960.000000 571.803500 7.62944e-005
2604 640509040.000000 571.957500 7.63838e-005
2605 640509120.000000 572.111500 7.6354e-005
2606 640509200.000000 572.265500 7.6354e-005
2607 640509280.000000 572.422000 7.62646e-005
2608 640509360.000000 572.575500 7.63242e-005
2609 640509440.000000 572.729500 7.62646e-005
2610 640509520.000000 572.888500 7.62348e-005
2611 640509600.000000 573.040500 7.62646e-005
2612 640509680.000000 573.201000 7.62348e-005
2613 640509760.000000 573.357500 7.62348e-005
2614 640509840.000000 573.511000 7.62348e-005
2615 640509920.000000 573.669000 7.62646e-005
2616 640510000.000000 573.820000 7.62646e-005
2617 640510080.000000 573.978500 7.6205e-005
2618 640510160.000000 574.134000 7.62348e-005
2619 640510240.000000 574.287000 7.61454e-005
2620 640510320.000000 574.443500 7.6205e-005
2621 640510400.000000 574.598500 7.61454e-005
2622 640510480.000000 574.756000 7.60858e-005
2623 640510560.000000 574.908500 7.61752e-005
2624 640510640.000000 575.063500 7.61454e-005
2625 640510720.000000 575.222000 7.6205e-005
2626 640510800.000000 575.375000 7.61752e-005
2627 640510880.000000 575.530500 7.61752e-005
2628 640510960.000000 575.684000 7.60858e-005
2629 640511040.000000 575.839000 7.61454e-005
2630 640511120.000000 575.997500 7.61454e-005
2631 640511200.000000 576.148000 7.60858e-005
2632 640511280.000000 576.301500 7.60858e-005
2633 640511360.000000 576.457500 7.6056e-005
2634 640511440.000000 576.607500 7.59368e-005
2635 640511520.000000 576.765000 7.60262e-005
2636 640511600.000000 576.922000 7.59964e-005
2637 640511680.000000 577.076000 7.59666e-005
2638 640511760.000000 577.229500 7.59666e-005
2639 640511840.000000 577.384000 7.59368e-005
2640 640511920.000000 577.539500 7.59666e-005
2641 640512000.000000 577.692000 7.5907e-005
2642 640512080.000000 577.848500 7.59368e-005
2643 640512160.000000 578.006500 7.59666e-005
2644 640512240.000000 578.163000 7.59666e-005
2645 640512320.000000 578.317500 7.59368e-005
2646 640512400.000000 578.474500 7.5907e-005
2647 640512480.000000 578.629500 7.58772e-005
2648 640512560.000000 578.784500 7.58772e-005
2649 640512640.000000 578.940000 7.58176e-005
2650 640512720.000000 579.098000 7.5907e-005
2651 640512800.000000 579.255000 7.58772e-005
2652 640512880.000000 579.406000 7.59368e-005
2653 640512960.000000 579.564500 7.58772e-005
2654 640513040.000000 579.720000 7.5907e-005
2655 640513120.000000 579.872500 7.58176e-005
2656 640513200.000000 580.029500 7.57878e-005
2657 640513280.000000 580.185000 7.5907e-005
2658 640513360.000000 580.338000 7.5758e-005
2659 640513440.000000 580.495500 7.58772e-005
2660 640513520.000000 580.650500 7.58474e-005
2661 640513600.000000 580.804500 7.58772e-005
2662 640513680.000000 580.960000 7.5758e-005
2663 640513760.000000 581.117000 7.5758e-005
2664 640513840.000000 581.270000 7.57878e-005
2665 640513920.000000 581.423500 7.5758e-005
2666 640514000.000000 581.578500 7.5758e-005
2667 640514080.000000 581.732500 7.57282e-005
2668 640514160.000000 581.887000 7.57282e-005
2669 640514240.000000 582.043500 7.56686e-005
2670 640514320.000000 582.194000 7.57282e-005
2671 640514400.000000 582.351000 7.56388e-005
2672 640514480.000000 582.507000 7.5758e-005
2673 640514560.000000 582.657500 7.56388e-005
2674 640514640.000000 582.815500 7.56984e-005
2675 640514720.000000 582.967500 7.56686e-005
2676 640514800.000000 583.125500 7.56984e-005
2677 640514880.000000 583.284000 7.57282e-005
2678 640514960.000000 583.436500 7.56388e-005
2679 640515040.000000 583.593500 7.5609e-005
2680 640515120.000000 583.749000 7.5609e-005
2681 640515200.000000 583.903500 7.56388e-005
2682 640515280.000000 584.060000 7.56388e-005
2683 640515360.000000 584.214000 7.55792e-005
2684 640515440.000000 584.370000 7.56686e-005
2685 640515520.000000 584.526000 7.56686e-005
2686 640515600.000000 584.682000 7.55494e-005
2687 640515680.000000 584.835500 7.56388e-005
2688 640515760.000000 584.990500 7.55792e-005
2689 640515840.000000 585.148500 7.55494e-005
2690 640515920.000000 585.300500 7.55494e-005
2691 640516000.000000 585.456500 7.55196e-005
2692 640516080.000000 585.613500 7.55494e-005
2693 640516160.000000 585.765000 7.55196e-005
2694 640516240.000000 585.923000 7.55494e-005
2695 640516320.000000 586.079000 7.55196e-005
2696 640516400.000000 586.230500 7.55494e-005
2697 640516480.000000 586.387500 7.54897e-005
2698 640516560.000000 586.541000 7.55494e-005
2699 640516640.000000 586.696500 7.55494e-005
2700 640516720.000000 586.848000 7.54897e-005
2701 640516801.000000 587.002000 7.54897e-005
2702 640516880.000000 587.159500 7.54599e-005
2703 640516960.000000 587.312000 7.53705e-005
2704 640517040.000000 587.469000 7.54301e-005
2705 640517120.000000 587.622500 7.53705e-005
2706 640517200.000000 587.775500 7.53407e-005
2707 640517280.000000 587.933000 7.53705e-005
2708 640517360.000000 588.087000 7.53109e-005
2709 640517440.000000 588.243500 7.53705e-005
2710 640517520.000000 588.401500 7.53109e-005
2711 640517600.000000 588.554000 7.53407e-005
2712 640517680.000000 588.713000 7.52513e-005
2713 640517760.000000 588.866000 7.53705e-005
2714 640517840.000000 589.021500 7.53407e-005
2715 640517920.000000 589.179500 7.53109e-005
2716 640518000.000000 589.335000 7.52513e-005
2717 640518080.000000 589.489000 7.52215e-005
2718 640518160.000000 589.642500 7.52215e-005
2719 640518240.000000 589.798000 7.53109e-005
2720 640518320.000000 589.955500 7.52513e-005
2721 640518400.000000 590.108000 7.52513e-005
2722 640518480.000000 590.262000 7.52215e-005
2723 640518560.000000 590.418500 7.52513e-005
2724 640518640.000000 590.574000 7.52513e-005
2725 640518720.000000 590.730000 7.51917e-005
2726 640518800.000000 590.884500 7.52811e-005
2727 640518880.000000 591.040500 7.51619e-005
2728 640518960.000000 591.195000 7.51917e-005
2729 640519040.000000 591.350000 7.52215e-005
2730 640519120.000000 591.508000 7.52811e-005
2731 640519200.000000 591.660000 7.53705e-005
2732 640519280.000000 591.814500 7.53407e-005
2733 640519360.000000 591.970000 7.52513e-005
2734 640519440.000000 592.123000 7.51917e-005
2735 640519520.000000 592.276500 7.51023e-005
2736 640519600.000000 592.432500 7.51619e-005
2737 640519680.000000 592.586000 7.51023e-005
2738 640519760.000000 592.740000 7.50427e-005
2739 640519840.000000 592.895500 7.49533e-005
2740 640519920.000000 593.051000 7.50129e-005
2741 640520000.000000 593.206000 7.51619e-005
2742 640520080.000000 593.362500 7.51619e-005
2743 640520160.000000 593.521000 7.52215e-005
2744 640520240.000000 593.676500 7.52513e-005
2745 640520320.000000 593.828500 7.51619e-005
2746 640520400.000000 593.986500 7.51619e-005
2747 640520480.000000 594.138000 7.51023e-005
2748 640520560.000000 594.296500 7.50427e-005
2749 640520640.000000 594.452500 7.50725e-005
2750 640520720.000000 594.604000 7.50427e-005
2751 640520800.000000 594.763500 7.50427e-005
2752 640520880.000000 594.918000 7.51023e-005
2753 640520960.000000 595.072500 7.50427e-005
2754 640521040.000000 595.229500 7.49831e-005
2755 640521120.000000 595.382500 7.50427e-005
2756 640521200.000000 595.539000 7.49831e-005
2757 640521280.000000 595.692500 7.50427e-005
2758 640521360.000000 595.850000 7.50427e-005
2759 640521440.000000 596.007000 7.49831e-005
2760 640521520.000000 596.157000 7.50427e-005
2761 640521600.000000 596.312000 7.50129e-005
2762 640521680.000000 596.465500 7.49831e-005
2763 640521760.000000 596.623000 7.48937e-005
2764 640521840.000000 596.777500 7.48937e-005
2765 640521920.000000 596.929500 7.48937e-005
2766 640522000.000000 597.086000 7.48341e-005
2767 640522080.000000 597.241000 7.48043e-005
2768 640522160.000000 597.392500 7.48341e-005
2769 640522240.000000 597.547500 7.48937e-005
2770 640522320.000000 597.698500 7.49831e-005
2771 640522400.000000 597.856000 7.48639e-005
2772 640522480.000000 598.012000 7.48341e-005
2773 640522560.000000 598.164000 7.49235e-005
2774 640522640.000000 598.322000 7.49235e-005
2775 640522720.000000 598.479500 7.49235e-005
2776 640522800.000000 598.635000 7.49533e-005
2777 640522880.000000 598.790500 7.49235e-005
2778 640522960.000000 598.945000 7.49533e-005
2779 640523040.000000 599.100000 7.49831e-005
2780 640523120.000000 599.255500 7.50129e-005
2781 640523200.000000 599.413000 7.49235e-005
2782 640523280.000000 599.566500 7.49831e-005
2783 640523360.000000 599.721500 7.49533e-005
2784 640523440.000000 599.880500 7.49831e-005
2785 640523520.000000 600.032500 7.49533e-005
2786 640523600.000000 600.190000 7.49831e-005
2787 640523680.000000 600.346000 7.50427e-005
2788 640523760.000000 600.496500 7.49831e-005
2789 640523840.000000 600.654000 7.49831e-005
2790 640523920.000000 600.810000 7.49831e-005
2791 640524000.000000 600.962000 7.49831e-005
2792 640524080.000000 601.119500 7.49235e-005
2793 640524160.000000 601.275500 7.49235e-005
2794 640524240.000000 601.431000 7.50427e-005
2795 640524320.000000 601.583500 7.49831e-005
2796 640524400.000000 601.738500 7.49831e-005
2797 640524480.000000 601.891500 7.49235e-005
2798 640524560.000000 602.046500 7.48639e-005
2799 640524640.000000 602.202500 7.48043e-005
2800 640524720.000000 602.355000 7.47745e-005
