# # SAMPLE - One Arm Scans
FTS 150 GHz source w/circula4 feedhorn and 150 GHz diode detector w/ 
rect feedhorn and no circ - rect transition; 

SAMPLE:15-02 #607, 608 etalon with 2.25" spacing. Cut out of region of high reflectance.

Sample aligned with x-polarization.






# Center Position 388.300000
# half-wdth 220.000000
# speed, mm/s 2.000000
# SRS time constant: 0.030000 sec
# SRS filter slope: 6 dB/octave
# SRS filt sync on/off: ON
# SRS input mode: AC
# SRS input shield: GND
# SRS sensitivity: 5.000000E-4 volts
# SRS input reserve mode: 2
# SRS sample rate: 256.000000 Hz
# index  time   encoder   signal
# DATA
0 640801800.000000 168.006500 9.61726e-005
1 640801880.000000 168.161000 9.61726e-005
2 640801960.000000 168.314000 9.61726e-005
3 640802040.000000 168.469000 9.62024e-005
4 640802120.000000 168.625000 9.61726e-005
5 640802200.000000 168.777000 9.61428e-005
6 640802280.000000 168.932500 9.62024e-005
7 640802360.000000 169.089500 9.60534e-005
8 640802440.000000 169.241000 9.61428e-005
9 640802520.000000 169.397500 9.60832e-005
10 640802600.000000 169.554000 9.60235e-005
11 640802680.000000 169.708000 9.60534e-005
12 640802760.000000 169.860000 9.59937e-005
13 640802840.000000 170.012000 9.59639e-005
14 640802920.000000 170.168000 9.59341e-005
15 640803000.000000 170.325000 9.58447e-005
16 640803080.000000 170.479000 9.59341e-005
17 640803160.000000 170.632500 9.59043e-005
18 640803240.000000 170.788000 9.59341e-005
19 640803320.000000 170.942500 9.59341e-005
20 640803400.000000 171.099000 9.59937e-005
21 640803480.000000 171.253500 9.60235e-005
22 640803560.000000 171.410500 9.59639e-005
23 640803640.000000 171.569500 9.59043e-005
24 640803720.000000 171.723500 9.57851e-005
25 640803800.000000 171.881000 9.56659e-005
26 640803880.000000 172.034500 9.56957e-005
27 640803960.000000 172.188000 9.56957e-005
28 640804040.000000 172.345000 9.58745e-005
29 640804120.000000 172.494500 9.59341e-005
30 640804200.000000 172.657500 9.59937e-005
31 640804280.000000 172.811500 9.59341e-005
32 640804360.000000 172.967500 9.59937e-005
33 640804440.000000 173.122000 9.60235e-005
34 640804520.000000 173.276000 9.59639e-005
35 640804600.000000 173.433500 9.59639e-005
36 640804680.000000 173.585000 9.59043e-005
37 640804760.000000 173.740500 9.59341e-005
38 640804840.000000 173.897500 9.59639e-005
39 640804920.000000 174.049500 9.58745e-005
40 640805000.000000 174.207000 9.59341e-005
41 640805080.000000 174.359500 9.59341e-005
42 640805160.000000 174.515000 9.58745e-005
43 640805240.000000 174.673000 9.58745e-005
44 640805320.000000 174.827500 9.58149e-005
45 640805400.000000 174.981000 9.58149e-005
46 640805480.000000 175.137500 9.57851e-005
47 640805560.000000 175.291000 9.56361e-005
48 640805640.000000 175.445500 9.57553e-005
49 640805720.000000 175.601500 9.57553e-005
50 640805800.000000 175.755500 9.57255e-005
51 640805880.000000 175.909500 9.57255e-005
52 640805960.000000 176.066500 9.57255e-005
53 640806040.000000 176.220500 9.57553e-005
54 640806120.000000 176.378000 9.57255e-005
55 640806200.000000 176.530500 9.56957e-005
56 640806280.000000 176.686500 9.56957e-005
57 640806360.000000 176.842500 9.56361e-005
58 640806440.000000 177.001000 9.56063e-005
59 640806520.000000 177.153500 9.55765e-005
60 640806600.000000 177.307000 9.56063e-005
61 640806680.000000 177.462500 9.55169e-005
62 640806760.000000 177.620000 9.55765e-005
63 640806840.000000 177.776000 9.55467e-005
64 640806920.000000 177.930000 9.55765e-005
65 640807000.000000 178.083500 9.55169e-005
66 640807080.000000 178.242500 9.54871e-005
67 640807160.000000 178.395000 9.55765e-005
68 640807240.000000 178.548500 9.55765e-005
69 640807320.000000 178.704000 9.55467e-005
70 640807400.000000 178.855500 9.55169e-005
71 640807480.000000 179.014500 9.54871e-005
72 640807560.000000 179.171000 9.54871e-005
73 640807640.000000 179.322500 9.53679e-005
74 640807720.000000 179.480500 9.53679e-005
75 640807800.000000 179.630500 9.54275e-005
76 640807880.000000 179.787500 9.53977e-005
77 640807960.000000 179.943000 9.53679e-005
78 640808040.000000 180.097500 9.53679e-005
79 640808120.000000 180.251500 9.53381e-005
80 640808200.000000 180.407000 9.52785e-005
81 640808280.000000 180.560000 9.53381e-005
82 640808360.000000 180.717000 9.52189e-005
83 640808440.000000 180.870500 9.50699e-005
84 640808520.000000 181.028500 9.50401e-005
85 640808600.000000 181.181000 9.49209e-005
86 640808680.000000 181.337500 9.49209e-005
87 640808760.000000 181.495000 9.50997e-005
88 640808840.000000 181.647500 9.50997e-005
89 640808920.000000 181.806500 9.52487e-005
90 640809000.000000 181.962500 9.52189e-005
91 640809080.000000 182.116500 9.53381e-005
92 640809160.000000 182.274000 9.52487e-005
93 640809240.000000 182.428500 9.52785e-005
94 640809320.000000 182.583000 9.52189e-005
95 640809400.000000 182.739000 9.53083e-005
96 640809480.000000 182.892500 9.53381e-005
97 640809560.000000 183.050500 9.53381e-005
98 640809640.000000 183.203000 9.53381e-005
99 640809720.000000 183.360000 9.53381e-005
100 640809800.000000 183.515500 9.52785e-005
101 640809880.000000 183.669000 9.53381e-005
102 640809960.000000 183.823000 9.53679e-005
103 640810040.000000 183.978500 9.53083e-005
104 640810120.000000 184.135500 9.52189e-005
105 640810200.000000 184.289000 9.52487e-005
106 640810280.000000 184.443000 9.52189e-005
107 640810360.000000 184.597000 9.51295e-005
108 640810440.000000 184.753000 9.51295e-005
109 640810520.000000 184.909000 9.51593e-005
110 640810600.000000 185.064000 9.51891e-005
111 640810680.000000 185.216500 9.51593e-005
112 640810760.000000 185.375000 9.51295e-005
113 640810840.000000 185.528000 9.51891e-005
114 640810920.000000 185.682000 9.50699e-005
115 640811000.000000 185.838500 9.50401e-005
116 640811080.000000 185.991500 9.50103e-005
117 640811160.000000 186.146000 9.49805e-005
118 640811240.000000 186.303000 9.49805e-005
119 640811320.000000 186.457500 9.50401e-005
120 640811400.000000 186.613500 9.49209e-005
121 640811480.000000 186.771500 9.49507e-005
122 640811560.000000 186.923500 9.48911e-005
123 640811640.000000 187.081000 9.49507e-005
124 640811720.000000 187.236000 9.49507e-005
125 640811800.000000 187.390500 9.49209e-005
126 640811880.000000 187.546000 9.48315e-005
127 640811960.000000 187.702000 9.47719e-005
128 640812040.000000 187.857500 9.48017e-005
129 640812120.000000 188.012000 9.49209e-005
130 640812200.000000 188.169500 9.48017e-005
131 640812280.000000 188.324000 9.48017e-005
132 640812360.000000 188.477000 9.48911e-005
133 640812440.000000 188.633000 9.48911e-005
134 640812520.000000 188.786000 9.47719e-005
135 640812600.000000 188.943000 9.48017e-005
136 640812680.000000 189.098500 9.47719e-005
137 640812760.000000 189.251000 9.48911e-005
138 640812840.000000 189.409000 9.48315e-005
139 640812920.000000 189.562000 9.47719e-005
140 640813000.000000 189.719500 9.4742e-005
141 640813080.000000 189.875000 9.46228e-005
142 640813160.000000 190.026000 9.45334e-005
143 640813240.000000 190.183000 9.45036e-005
144 640813320.000000 190.339000 9.4444e-005
145 640813400.000000 190.490500 9.4593e-005
146 640813480.000000 190.647000 9.4593e-005
147 640813560.000000 190.800500 9.46526e-005
148 640813640.000000 190.956000 9.46526e-005
149 640813720.000000 191.108500 9.46228e-005
150 640813800.000000 191.263500 9.46228e-005
151 640813880.000000 191.421000 9.46228e-005
152 640813960.000000 191.578000 9.45632e-005
153 640814040.000000 191.731500 9.46228e-005
154 640814120.000000 191.886000 9.45036e-005
155 640814200.000000 192.042000 9.46228e-005
156 640814280.000000 192.200000 9.45334e-005
157 640814360.000000 192.354000 9.4593e-005
158 640814440.000000 192.507500 9.46526e-005
159 640814520.000000 192.664000 9.45334e-005
160 640814600.000000 192.821500 9.45334e-005
161 640814680.000000 192.977000 9.4593e-005
162 640814760.000000 193.131000 9.4444e-005
163 640814840.000000 193.286000 9.44738e-005
164 640814920.000000 193.442000 9.45036e-005
165 640815000.000000 193.597500 9.45334e-005
166 640815080.000000 193.754000 9.44738e-005
167 640815160.000000 193.906000 9.43844e-005
168 640815240.000000 194.061000 9.44738e-005
169 640815320.000000 194.217500 9.43546e-005
170 640815400.000000 194.370500 9.43844e-005
171 640815480.000000 194.527000 9.43546e-005
172 640815560.000000 194.682500 9.4295e-005
173 640815640.000000 194.836000 9.43844e-005
174 640815720.000000 194.992500 9.4295e-005
175 640815800.000000 195.144000 9.43844e-005
176 640815880.000000 195.301500 9.42056e-005
177 640815960.000000 195.459500 9.42354e-005
178 640816040.000000 195.610500 9.42056e-005
179 640816120.000000 195.768500 9.42354e-005
180 640816200.000000 195.924000 9.42354e-005
181 640816280.000000 196.076000 9.42056e-005
182 640816360.000000 196.233000 9.42056e-005
183 640816440.000000 196.387500 9.41162e-005
184 640816520.000000 196.543000 9.40864e-005
185 640816600.000000 196.699000 9.41162e-005
186 640816680.000000 196.855500 9.40566e-005
187 640816760.000000 197.009500 9.41162e-005
188 640816840.000000 197.165000 9.40566e-005
189 640816920.000000 197.323000 9.40566e-005
190 640817000.000000 197.476500 9.40268e-005
191 640817080.000000 197.629000 9.40268e-005
192 640817160.000000 197.785500 9.3997e-005
193 640817240.000000 197.939500 9.40268e-005
194 640817320.000000 198.097000 9.40268e-005
195 640817400.000000 198.254000 9.40268e-005
196 640817480.000000 198.404000 9.3997e-005
197 640817560.000000 198.562500 9.40268e-005
198 640817640.000000 198.715000 9.39076e-005
199 640817720.000000 198.869500 9.39076e-005
200 640817800.000000 199.025000 9.3848e-005
201 640817880.000000 199.178500 9.3848e-005
202 640817960.000000 199.334000 9.38778e-005
203 640818040.000000 199.490000 9.39076e-005
204 640818120.000000 199.645500 9.40268e-005
205 640818200.000000 199.799500 9.39374e-005
206 640818280.000000 199.954000 9.39672e-005
207 640818360.000000 200.114000 9.40268e-005
208 640818440.000000 200.268000 9.39672e-005
209 640818520.000000 200.420000 9.40268e-005
210 640818600.000000 200.578000 9.39672e-005
211 640818680.000000 200.729000 9.40864e-005
212 640818760.000000 200.886000 9.40268e-005
213 640818840.000000 201.041500 9.40268e-005
214 640818920.000000 201.193500 9.40864e-005
215 640819000.000000 201.349000 9.40268e-005
216 640819080.000000 201.505500 9.41162e-005
217 640819160.000000 201.661500 9.41162e-005
218 640819240.000000 201.816000 9.40566e-005
219 640819320.000000 201.971500 9.41758e-005
220 640819400.000000 202.126500 9.41758e-005
221 640819480.000000 202.282500 9.41162e-005
222 640819560.000000 202.438500 9.40864e-005
223 640819640.000000 202.593500 9.40864e-005
224 640819720.000000 202.748500 9.41162e-005
225 640819800.000000 202.906000 9.40864e-005
226 640819880.000000 203.059000 9.41162e-005
227 640819960.000000 203.215000 9.41162e-005
228 640820040.000000 203.369000 9.41162e-005
229 640820120.000000 203.524500 9.41162e-005
230 640820200.000000 203.682000 9.41162e-005
231 640820280.000000 203.837000 9.4146e-005
232 640820360.000000 203.989000 9.40566e-005
233 640820440.000000 204.147500 9.41162e-005
234 640820520.000000 204.298500 9.40566e-005
235 640820600.000000 204.455500 9.41162e-005
236 640820680.000000 204.608500 9.40864e-005
237 640820760.000000 204.763500 9.40566e-005
238 640820840.000000 204.921000 9.40566e-005
239 640820920.000000 205.073000 9.40268e-005
240 640821000.000000 205.230000 9.40566e-005
241 640821080.000000 205.385500 9.41162e-005
242 640821160.000000 205.541000 9.40566e-005
243 640821240.000000 205.694500 9.41162e-005
244 640821320.000000 205.847500 9.40268e-005
245 640821400.000000 206.002000 9.40566e-005
246 640821480.000000 206.159500 9.40566e-005
247 640821560.000000 206.313500 9.40864e-005
248 640821640.000000 206.467000 9.40268e-005
249 640821720.000000 206.623500 9.39672e-005
250 640821800.000000 206.779000 9.40268e-005
251 640821880.000000 206.936500 9.40268e-005
252 640821960.000000 207.089000 9.39374e-005
253 640822040.000000 207.246000 9.40268e-005
254 640822120.000000 207.404000 9.39672e-005
255 640822200.000000 207.559000 9.40268e-005
256 640822280.000000 207.715500 9.39672e-005
257 640822360.000000 207.868500 9.40268e-005
258 640822440.000000 208.023500 9.40268e-005
259 640822520.000000 208.177500 9.39076e-005
260 640822600.000000 208.332500 9.39076e-005
261 640822680.000000 208.487500 9.3848e-005
262 640822760.000000 208.643500 9.3848e-005
263 640822840.000000 208.799500 9.39374e-005
264 640822920.000000 208.953000 9.39076e-005
265 640823000.000000 209.106500 9.40566e-005
266 640823080.000000 209.263000 9.39374e-005
267 640823160.000000 209.420000 9.39672e-005
268 640823240.000000 209.571000 9.39374e-005
269 640823320.000000 209.728000 9.39672e-005
270 640823400.000000 209.884000 9.40268e-005
271 640823480.000000 210.037000 9.40268e-005
272 640823560.000000 210.193000 9.40566e-005
273 640823640.000000 210.347500 9.40566e-005
274 640823720.000000 210.504500 9.40268e-005
275 640823800.000000 210.657500 9.40268e-005
276 640823880.000000 210.814500 9.40268e-005
277 640823960.000000 210.970000 9.3997e-005
278 640824040.000000 211.122000 9.40566e-005
279 640824120.000000 211.280000 9.40268e-005
280 640824200.000000 211.431000 9.40268e-005
281 640824280.000000 211.586000 9.39672e-005
282 640824360.000000 211.742000 9.39374e-005
283 640824440.000000 211.897500 9.39672e-005
284 640824520.000000 212.052500 9.39672e-005
285 640824600.000000 212.209000 9.39672e-005
286 640824680.000000 212.362000 9.39374e-005
287 640824760.000000 212.519000 9.3997e-005
288 640824840.000000 212.673000 9.39374e-005
289 640824920.000000 212.831000 9.40268e-005
290 640825000.000000 212.984000 9.38778e-005
291 640825080.000000 213.137500 9.39076e-005
292 640825160.000000 213.296500 9.3848e-005
293 640825240.000000 213.453000 9.3848e-005
294 640825320.000000 213.606000 9.39076e-005
295 640825400.000000 213.761000 9.38778e-005
296 640825480.000000 213.913500 9.38778e-005
297 640825560.000000 214.070000 9.39076e-005
298 640825640.000000 214.225000 9.38182e-005
299 640825720.000000 214.380000 9.39076e-005
300 640825800.000000 214.534500 9.39076e-005
301 640825880.000000 214.690000 9.39076e-005
302 640825960.000000 214.846000 9.38182e-005
303 640826040.000000 214.999000 9.37884e-005
304 640826120.000000 215.155500 9.3848e-005
305 640826200.000000 215.309000 9.38182e-005
306 640826280.000000 215.463500 9.38182e-005
307 640826360.000000 215.621000 9.38182e-005
308 640826440.000000 215.774000 9.37288e-005
309 640826520.000000 215.928500 9.38182e-005
310 640826600.000000 216.086000 9.38182e-005
311 640826680.000000 216.238000 9.37586e-005
312 640826760.000000 216.394500 9.37586e-005
313 640826840.000000 216.551000 9.37586e-005
314 640826920.000000 216.704500 9.38182e-005
315 640827000.000000 216.859000 9.38182e-005
316 640827080.000000 217.017000 9.37884e-005
317 640827160.000000 217.170500 9.38182e-005
318 640827240.000000 217.327000 9.37884e-005
319 640827320.000000 217.483500 9.37586e-005
320 640827400.000000 217.638500 9.3699e-005
321 640827480.000000 217.794000 9.37884e-005
322 640827560.000000 217.948000 9.37884e-005
323 640827640.000000 218.106500 9.37586e-005
324 640827720.000000 218.258500 9.3848e-005
325 640827800.000000 218.414500 9.36692e-005
326 640827880.000000 218.567500 9.37884e-005
327 640827960.000000 218.720500 9.37288e-005
328 640828040.000000 218.879500 9.37884e-005
329 640828120.000000 219.034500 9.37884e-005
330 640828200.000000 219.188000 9.36692e-005
331 640828280.000000 219.343500 9.37586e-005
332 640828360.000000 219.498500 9.3699e-005
333 640828440.000000 219.652500 9.3699e-005
334 640828520.000000 219.804000 9.3699e-005
335 640828600.000000 219.961500 9.36692e-005
336 640828680.000000 220.118000 9.37288e-005
337 640828760.000000 220.269500 9.3699e-005
338 640828840.000000 220.424500 9.37586e-005
339 640828920.000000 220.581500 9.36692e-005
340 640829000.000000 220.738000 9.36096e-005
341 640829080.000000 220.892500 9.36394e-005
342 640829160.000000 221.045000 9.36394e-005
343 640829240.000000 221.203500 9.36096e-005
344 640829320.000000 221.356500 9.36096e-005
345 640829400.000000 221.510500 9.36394e-005
346 640829480.000000 221.668000 9.35798e-005
347 640829560.000000 221.819500 9.35202e-005
348 640829640.000000 221.977000 9.36096e-005
349 640829720.000000 222.132000 9.35202e-005
350 640829800.000000 222.286000 9.355e-005
351 640829880.000000 222.442000 9.35798e-005
352 640829960.000000 222.599500 9.35798e-005
353 640830040.000000 222.752500 9.34904e-005
354 640830120.000000 222.908500 9.34904e-005
355 640830200.000000 223.063000 9.355e-005
356 640830280.000000 223.220500 9.355e-005
357 640830360.000000 223.374500 9.34605e-005
358 640830440.000000 223.531000 9.34605e-005
359 640830520.000000 223.685000 9.34605e-005
360 640830600.000000 223.838500 9.34605e-005
361 640830680.000000 223.997000 9.34904e-005
362 640830760.000000 224.148000 9.33711e-005
363 640830840.000000 224.303000 9.34605e-005
364 640830920.000000 224.459500 9.34009e-005
365 640831000.000000 224.612500 9.33115e-005
366 640831080.000000 224.770000 9.32817e-005
367 640831160.000000 224.926500 9.33413e-005
368 640831241.000000 225.079000 9.33413e-005
369 640831320.000000 225.236000 9.32817e-005
370 640831400.000000 225.391000 9.33711e-005
371 640831480.000000 225.545000 9.32817e-005
372 640831560.000000 225.700500 9.32817e-005
373 640831640.000000 225.855000 9.33115e-005
374 640831720.000000 226.010000 9.32519e-005
375 640831800.000000 226.164500 9.33413e-005
376 640831880.000000 226.319000 9.32519e-005
377 640831960.000000 226.475500 9.33115e-005
378 640832040.000000 226.629500 9.32817e-005
379 640832120.000000 226.786500 9.32221e-005
380 640832200.000000 226.942000 9.32519e-005
381 640832280.000000 227.095500 9.32221e-005
382 640832360.000000 227.253500 9.32221e-005
383 640832440.000000 227.410000 9.32221e-005
384 640832520.000000 227.562500 9.33711e-005
385 640832600.000000 227.719000 9.32817e-005
386 640832680.000000 227.871000 9.31923e-005
387 640832760.000000 228.029500 9.33413e-005
388 640832840.000000 228.183500 9.31923e-005
389 640832920.000000 228.337000 9.31923e-005
390 640833000.000000 228.494000 9.32221e-005
391 640833080.000000 228.645000 9.31327e-005
392 640833160.000000 228.803500 9.31923e-005
393 640833240.000000 228.959000 9.32519e-005
394 640833320.000000 229.111000 9.31625e-005
395 640833400.000000 229.269000 9.31327e-005
396 640833480.000000 229.422500 9.30731e-005
397 640833560.000000 229.578500 9.31327e-005
398 640833640.000000 229.732000 9.31029e-005
399 640833720.000000 229.887500 9.30731e-005
400 640833800.000000 230.042000 9.30731e-005
401 640833880.000000 230.196000 9.30433e-005
402 640833960.000000 230.354500 9.31327e-005
403 640834040.000000 230.506500 9.30433e-005
404 640834120.000000 230.661000 9.30433e-005
405 640834200.000000 230.818000 9.30433e-005
406 640834280.000000 230.973500 9.30433e-005
407 640834360.000000 231.128500 9.30433e-005
408 640834440.000000 231.284500 9.30433e-005
409 640834520.000000 231.440000 9.30731e-005
410 640834600.000000 231.594500 9.29539e-005
411 640834680.000000 231.749000 9.29837e-005
412 640834760.000000 231.906000 9.29241e-005
413 640834840.000000 232.058500 9.28943e-005
414 640834920.000000 232.214000 9.29837e-005
415 640835000.000000 232.371500 9.29241e-005
416 640835080.000000 232.526500 9.28645e-005
417 640835160.000000 232.681000 9.29539e-005
418 640835240.000000 232.838000 9.28347e-005
419 640835320.000000 232.992500 9.28943e-005
420 640835400.000000 233.147500 9.28049e-005
421 640835480.000000 233.335000 9.28943e-005
422 640835580.000000 233.497000 9.28943e-005
423 640835660.000000 233.653000 9.28645e-005
424 640835740.000000 233.806000 9.28645e-005
425 640835820.000000 233.961500 9.27751e-005
426 640835900.000000 234.119500 9.27751e-005
427 640835980.000000 234.270000 9.27751e-005
428 640836060.000000 234.426000 9.27453e-005
429 640836140.000000 234.583000 9.26559e-005
430 640836220.000000 234.735000 9.26857e-005
431 640836300.000000 234.893000 9.26857e-005
432 640836380.000000 235.048000 9.25963e-005
433 640836460.000000 235.202500 9.25665e-005
434 640836540.000000 235.360000 9.25963e-005
435 640836620.000000 235.514000 9.26261e-005
436 640836700.000000 235.668500 9.25963e-005
437 640836780.000000 235.824000 9.25665e-005
438 640836860.000000 235.977000 9.25963e-005
439 640836940.000000 236.132000 9.25367e-005
440 640837020.000000 236.283500 9.25367e-005
441 640837100.000000 236.442000 9.25963e-005
442 640837180.000000 236.598000 9.25665e-005
443 640837260.000000 236.753000 9.25367e-005
444 640837340.000000 236.907500 9.25665e-005
445 640837420.000000 237.064000 9.25367e-005
446 640837500.000000 237.222000 9.25665e-005
447 640837580.000000 237.376500 9.24771e-005
448 640837660.000000 237.529000 9.25963e-005
449 640837740.000000 237.688000 9.25069e-005
450 640837820.000000 237.844500 9.25367e-005
451 640837900.000000 237.998500 9.25069e-005
452 640837980.000000 238.153500 9.25367e-005
453 640838060.000000 238.304500 9.25367e-005
454 640838140.000000 238.463500 9.24771e-005
455 640838220.000000 238.619000 9.24473e-005
456 640838300.000000 238.771000 9.24771e-005
457 640838380.000000 238.929000 9.24771e-005
458 640838460.000000 239.079500 9.24175e-005
459 640838540.000000 239.237500 9.24175e-005
460 640838620.000000 239.394000 9.24175e-005
461 640838700.000000 239.543500 9.23579e-005
462 640838780.000000 239.701000 9.23877e-005
463 640838860.000000 239.857000 9.23579e-005
464 640838940.000000 240.012000 9.22387e-005
465 640839020.000000 240.168000 9.22685e-005
466 640839100.000000 240.322500 9.22089e-005
467 640839180.000000 240.478000 9.22089e-005
468 640839260.000000 240.633000 9.22387e-005
469 640839340.000000 240.790500 9.22089e-005
470 640839420.000000 240.943000 9.22387e-005
471 640839500.000000 241.098000 9.21492e-005
472 640839580.000000 241.252500 9.22089e-005
473 640839660.000000 241.408500 9.21194e-005
474 640839740.000000 241.565500 9.21194e-005
475 640839820.000000 241.721500 9.21492e-005
476 640839900.000000 241.873000 9.20896e-005
477 640839980.000000 242.030500 9.20598e-005
478 640840060.000000 242.185000 9.203e-005
479 640840140.000000 242.338500 9.19406e-005
480 640840220.000000 242.496500 9.203e-005
481 640840300.000000 242.653500 9.20002e-005
482 640840380.000000 242.807000 9.19108e-005
483 640840460.000000 242.963500 9.19108e-005
484 640840540.000000 243.119000 9.19406e-005
485 640840620.000000 243.273000 9.18512e-005
486 640840700.000000 243.425500 9.18214e-005
487 640840780.000000 243.581500 9.18512e-005
488 640840860.000000 243.738000 9.18214e-005
489 640840940.000000 243.892000 9.18214e-005
490 640841020.000000 244.046000 9.18512e-005
491 640841100.000000 244.201500 9.17618e-005
492 640841180.000000 244.355500 9.18214e-005
493 640841260.000000 244.512000 9.17618e-005
494 640841340.000000 244.666000 9.18214e-005
495 640841420.000000 244.822000 9.18214e-005
496 640841500.000000 244.976000 9.17618e-005
497 640841580.000000 245.134000 9.17618e-005
498 640841660.000000 245.289000 9.16426e-005
499 640841740.000000 245.442000 9.1732e-005
500 640841820.000000 245.601000 9.17022e-005
501 640841900.000000 245.752000 9.16724e-005
502 640841980.000000 245.908000 9.17022e-005
503 640842060.000000 246.064500 9.16128e-005
504 640842140.000000 246.215500 9.16128e-005
505 640842220.000000 246.373500 9.16128e-005
506 640842300.000000 246.530000 9.17022e-005
507 640842380.000000 246.681500 9.16128e-005
508 640842460.000000 246.840000 9.1583e-005
509 640842540.000000 246.994500 9.1583e-005
510 640842620.000000 247.151000 9.1583e-005
511 640842700.000000 247.306000 9.16128e-005
512 640842780.000000 247.461000 9.1583e-005
513 640842860.000000 247.619500 9.15532e-005
514 640842940.000000 247.773500 9.15234e-005
515 640843020.000000 247.929000 9.15234e-005
516 640843100.000000 248.086000 9.15234e-005
517 640843180.000000 248.237500 9.14042e-005
518 640843260.000000 248.395000 9.14936e-005
519 640843340.000000 248.551500 9.1434e-005
520 640843420.000000 248.702000 9.13744e-005
521 640843500.000000 248.861000 9.14638e-005
522 640843580.000000 249.017500 9.14042e-005
523 640843660.000000 249.170500 9.13744e-005
524 640843740.000000 249.327000 9.13148e-005
525 640843820.000000 249.479000 9.12254e-005
526 640843900.000000 249.634000 9.1285e-005
527 640843980.000000 249.788500 9.13148e-005
528 640844060.000000 249.942500 9.11658e-005
529 640844140.000000 250.097000 9.11658e-005
530 640844220.000000 250.253500 9.11956e-005
531 640844300.000000 250.412000 9.1136e-005
532 640844380.000000 250.565000 9.11062e-005
533 640844460.000000 250.720000 9.11658e-005
534 640844540.000000 250.874500 9.1136e-005
535 640844620.000000 251.028500 9.11062e-005
536 640844700.000000 251.187000 9.11062e-005
537 640844780.000000 251.339000 9.10168e-005
538 640844860.000000 251.493500 9.0987e-005
539 640844940.000000 251.648000 9.09572e-005
540 640845020.000000 251.802500 9.09572e-005
541 640845100.000000 251.961000 9.09274e-005
542 640845180.000000 252.113500 9.09572e-005
543 640845260.000000 252.269000 9.09274e-005
544 640845340.000000 252.427000 9.09572e-005
545 640845420.000000 252.580500 9.08379e-005
546 640845500.000000 252.737000 9.08677e-005
547 640845580.000000 252.894500 9.08677e-005
548 640845660.000000 253.047500 9.08379e-005
549 640845740.000000 253.204000 9.08081e-005
550 640845820.000000 253.358500 9.08081e-005
551 640845900.000000 253.512500 9.08081e-005
552 640845980.000000 253.669000 9.06293e-005
553 640846060.000000 253.820500 9.07187e-005
554 640846140.000000 253.977500 9.06889e-005
555 640846220.000000 254.134000 9.06591e-005
556 640846300.000000 254.286000 9.06591e-005
557 640846380.000000 254.443000 9.04505e-005
558 640846460.000000 254.598000 9.05101e-005
559 640846540.000000 254.751500 9.05101e-005
560 640846620.000000 254.907500 9.05995e-005
561 640846700.000000 255.063000 9.06591e-005
562 640846780.000000 255.217500 9.05995e-005
563 640846860.000000 255.372000 9.05399e-005
564 640846940.000000 255.529500 9.05101e-005
565 640847020.000000 255.684000 9.05697e-005
566 640847100.000000 255.840000 9.04505e-005
567 640847180.000000 255.996500 9.04505e-005
568 640847260.000000 256.150000 9.04207e-005
569 640847340.000000 256.305500 9.04505e-005
570 640847420.000000 256.462500 9.03909e-005
571 640847500.000000 256.614500 9.03611e-005
572 640847580.000000 256.771500 9.03611e-005
573 640847660.000000 256.925000 9.04207e-005
574 640847740.000000 257.081500 9.03611e-005
575 640847820.000000 257.236000 9.03015e-005
576 640847900.000000 257.389000 9.02419e-005
577 640847980.000000 257.548000 9.02717e-005
578 640848060.000000 257.703000 9.02121e-005
579 640848140.000000 257.860500 9.02121e-005
580 640848220.000000 258.014500 9.01823e-005
581 640848300.000000 258.169500 9.01823e-005
582 640848380.000000 258.327000 9.01525e-005
583 640848460.000000 258.483000 9.00929e-005
584 640848540.000000 258.633500 9.00333e-005
585 640848620.000000 258.790000 9.00333e-005
586 640848700.000000 258.942500 9.00035e-005
587 640848780.000000 259.099500 9.00333e-005
588 640848860.000000 259.255500 9.00035e-005
589 640848940.000000 259.407500 8.99737e-005
590 640849020.000000 259.562500 8.99141e-005
591 640849100.000000 259.720500 8.98843e-005
592 640849180.000000 259.871500 8.99439e-005
593 640849260.000000 260.027500 8.98247e-005
594 640849340.000000 260.180500 8.98545e-005
595 640849420.000000 260.339500 8.98545e-005
596 640849500.000000 260.494500 8.98545e-005
597 640849580.000000 260.648500 8.97949e-005
598 640849660.000000 260.806000 8.97353e-005
599 640849740.000000 260.958500 8.97353e-005
600 640849820.000000 261.117000 8.97353e-005
601 640849900.000000 261.270000 8.97353e-005
602 640849980.000000 261.423500 8.96757e-005
603 640850060.000000 261.580500 8.9616e-005
604 640850140.000000 261.732500 8.96757e-005
605 640850220.000000 261.890000 8.95564e-005
606 640850300.000000 262.046000 8.9616e-005
607 640850380.000000 262.199000 8.95862e-005
608 640850460.000000 262.355500 8.95862e-005
609 640850540.000000 262.513000 8.95862e-005
610 640850620.000000 262.669000 8.95564e-005
611 640850700.000000 262.824000 8.95266e-005
612 640850780.000000 262.978500 8.95564e-005
613 640850860.000000 263.135000 8.94372e-005
614 640850940.000000 263.291500 8.94968e-005
615 640851020.000000 263.444500 8.94074e-005
616 640851100.000000 263.601000 8.94372e-005
617 640851180.000000 263.753000 8.93776e-005
618 640851260.000000 263.911000 8.9318e-005
619 640851340.000000 264.065000 8.94074e-005
620 640851420.000000 264.219000 8.93478e-005
621 640851500.000000 264.374500 8.95266e-005
622 640851580.000000 264.530000 8.93776e-005
623 640851660.000000 264.683500 8.93776e-005
624 640851740.000000 264.840500 8.93776e-005
625 640851820.000000 264.990500 8.93776e-005
626 640851900.000000 265.148500 8.93776e-005
627 640851980.000000 265.302000 8.9318e-005
628 640852060.000000 265.457500 8.9318e-005
629 640852140.000000 265.611500 8.9318e-005
630 640852220.000000 265.768000 8.92286e-005
631 640852300.000000 265.924500 8.92882e-005
632 640852380.000000 266.077000 8.9318e-005
633 640852460.000000 266.235500 8.91988e-005
634 640852540.000000 266.393000 8.92286e-005
635 640852620.000000 266.545000 8.91392e-005
636 640852700.000000 266.700000 8.90498e-005
637 640852780.000000 266.856500 8.91094e-005
638 640852860.000000 267.013500 8.91094e-005
639 640852940.000000 267.168000 8.91392e-005
640 640853020.000000 267.321000 8.90498e-005
641 640853100.000000 267.475500 8.90796e-005
642 640853180.000000 267.633000 8.89604e-005
643 640853260.000000 267.785500 8.89902e-005
644 640853340.000000 267.944000 8.89604e-005
645 640853420.000000 268.101000 8.89604e-005
646 640853500.000000 268.256500 8.89008e-005
647 640853580.000000 268.414500 8.88412e-005
648 640853660.000000 268.566500 8.8871e-005
649 640853740.000000 268.724000 8.88412e-005
650 640853820.000000 268.875500 8.87518e-005
651 640853900.000000 269.031500 8.87518e-005
652 640853980.000000 269.187500 8.87518e-005
653 640854060.000000 269.340500 8.87518e-005
654 640854140.000000 269.496500 8.87518e-005
655 640854220.000000 269.650500 8.86922e-005
656 640854300.000000 269.806000 8.86922e-005
657 640854380.000000 269.960500 8.86028e-005
658 640854460.000000 270.116000 8.86028e-005
659 640854540.000000 270.268500 8.85432e-005
660 640854620.000000 270.426500 8.86028e-005
661 640854700.000000 270.580500 8.8573e-005
662 640854780.000000 270.737500 8.84836e-005
663 640854860.000000 270.893500 8.84538e-005
664 640854940.000000 271.047000 8.8424e-005
665 640855020.000000 271.205000 8.8424e-005
666 640855100.000000 271.356000 8.85432e-005
667 640855180.000000 271.515500 8.84538e-005
668 640855260.000000 271.668000 8.85134e-005
669 640855340.000000 271.824000 8.84538e-005
670 640855420.000000 271.977000 8.8424e-005
671 640855500.000000 272.132500 8.83047e-005
672 640855580.000000 272.290500 8.83047e-005
673 640855660.000000 272.443500 8.83345e-005
674 640855740.000000 272.596500 8.82749e-005
675 640855820.000000 272.754500 8.83644e-005
676 640855900.000000 272.907000 8.83047e-005
677 640855980.000000 273.066000 8.83345e-005
678 640856060.000000 273.222500 8.82153e-005
679 640856140.000000 273.375500 8.82153e-005
680 640856220.000000 273.534000 8.81855e-005
681 640856300.000000 273.689000 8.81557e-005
682 640856380.000000 273.843000 8.82749e-005
683 640856460.000000 273.996000 8.82153e-005
684 640856540.000000 274.150500 8.81855e-005
685 640856620.000000 274.310000 8.82153e-005
686 640856700.000000 274.462000 8.81557e-005
687 640856780.000000 274.617000 8.81855e-005
688 640856860.000000 274.770500 8.81855e-005
689 640856940.000000 274.925500 8.82153e-005
690 640857020.000000 275.079000 8.81557e-005
691 640857100.000000 275.235500 8.80365e-005
692 640857180.000000 275.389000 8.80961e-005
693 640857260.000000 275.545000 8.81259e-005
694 640857340.000000 275.701000 8.81259e-005
695 640857420.000000 275.857500 8.80663e-005
696 640857500.000000 276.014000 8.80663e-005
697 640857580.000000 276.166500 8.80067e-005
698 640857660.000000 276.323500 8.79769e-005
699 640857740.000000 276.476500 8.79173e-005
700 640857820.000000 276.635000 8.79769e-005
701 640857900.000000 276.790500 8.78875e-005
702 640857980.000000 276.943500 8.79173e-005
703 640858060.000000 277.101500 8.78279e-005
704 640858140.000000 277.254500 8.78577e-005
705 640858220.000000 277.411000 8.78279e-005
706 640858300.000000 277.565000 8.78279e-005
707 640858380.000000 277.720000 8.78279e-005
708 640858460.000000 277.875500 8.77385e-005
709 640858540.000000 278.032500 8.78577e-005
710 640858620.000000 278.188500 8.76491e-005
711 640858700.000000 278.346000 8.76491e-005
712 640858780.000000 278.499000 8.76491e-005
713 640858860.000000 278.658000 8.75895e-005
714 640858940.000000 278.811000 8.75895e-005
715 640859020.000000 278.967000 8.76193e-005
716 640859100.000000 279.123000 8.76193e-005
717 640859180.000000 279.273500 8.75895e-005
718 640859260.000000 279.428500 8.75895e-005
719 640859340.000000 279.585500 8.76491e-005
720 640859420.000000 279.740500 8.75299e-005
721 640859500.000000 279.894000 8.75299e-005
722 640859580.000000 280.046500 8.74703e-005
723 640859660.000000 280.203000 8.74107e-005
724 640859740.000000 280.361500 8.74703e-005
725 640859820.000000 280.512500 8.75001e-005
726 640859900.000000 280.667000 8.74703e-005
727 640859980.000000 280.823500 8.75001e-005
728 640860060.000000 280.980500 8.74405e-005
729 640860140.000000 281.135000 8.75597e-005
730 640860220.000000 281.288000 8.74107e-005
731 640860300.000000 281.443500 8.73511e-005
732 640860380.000000 281.601500 8.73511e-005
733 640860460.000000 281.755000 8.73213e-005
734 640860540.000000 281.913000 8.74703e-005
735 640860620.000000 282.064000 8.74107e-005
736 640860700.000000 282.222500 8.74107e-005
737 640860780.000000 282.377500 8.73213e-005
738 640860860.000000 282.529500 8.73511e-005
739 640860940.000000 282.687000 8.73809e-005
740 640861020.000000 282.840500 8.72915e-005
741 640861100.000000 282.998000 8.73213e-005
742 640861180.000000 283.153500 8.72617e-005
743 640861260.000000 283.310000 8.72617e-005
744 640861340.000000 283.464500 8.72617e-005
745 640861420.000000 283.622000 8.72021e-005
746 640861500.000000 283.777000 8.72915e-005
747 640861580.000000 283.930000 8.72021e-005
748 640861660.000000 284.083000 8.72617e-005
749 640861740.000000 284.240500 8.72021e-005
750 640861820.000000 284.396500 8.72319e-005
751 640861900.000000 284.548500 8.71723e-005
752 640861980.000000 284.705000 8.71425e-005
753 640862060.000000 284.857500 8.71127e-005
754 640862140.000000 285.015500 8.71723e-005
755 640862220.000000 285.167000 8.71425e-005
756 640862300.000000 285.321000 8.70829e-005
757 640862380.000000 285.476500 8.70829e-005
758 640862460.000000 285.633500 8.69934e-005
759 640862540.000000 285.789000 8.69934e-005
760 640862620.000000 285.941500 8.70232e-005
761 640862700.000000 286.097500 8.7053e-005
762 640862780.000000 286.257000 8.69338e-005
763 640862860.000000 286.412000 8.69636e-005
764 640862940.000000 286.563500 8.6904e-005
765 640863020.000000 286.719000 8.6904e-005
766 640863100.000000 286.875500 8.68444e-005
767 640863180.000000 287.033000 8.68444e-005
768 640863260.000000 287.185000 8.6904e-005
769 640863340.000000 287.339000 8.67848e-005
770 640863420.000000 287.498000 8.68742e-005
771 640863500.000000 287.648000 8.68742e-005
772 640863580.000000 287.805500 8.68146e-005
773 640863660.000000 287.961500 8.67848e-005
774 640863740.000000 288.114500 8.66954e-005
775 640863820.000000 288.274000 8.6755e-005
776 640863900.000000 288.428500 8.67252e-005
777 640863980.000000 288.585500 8.66656e-005
778 640864060.000000 288.739000 8.66358e-005
779 640864140.000000 288.895500 8.66954e-005
780 640864220.000000 289.052000 8.66656e-005
781 640864300.000000 289.205500 8.66358e-005
782 640864380.000000 289.362000 8.65762e-005
783 640864460.000000 289.516500 8.66656e-005
784 640864540.000000 289.669500 8.66358e-005
785 640864620.000000 289.824000 8.6606e-005
786 640864700.000000 289.981500 8.65464e-005
787 640864780.000000 290.132500 8.6606e-005
788 640864860.000000 290.290000 8.66358e-005
789 640864940.000000 290.441500 8.65762e-005
790 640865020.000000 290.598000 8.66358e-005
791 640865100.000000 290.754500 8.64868e-005
792 640865180.000000 290.908500 8.65166e-005
793 640865260.000000 291.066000 8.6457e-005
794 640865340.000000 291.219500 8.65166e-005
795 640865420.000000 291.374500 8.65762e-005
796 640865500.000000 291.530000 8.65166e-005
797 640865580.000000 291.683500 8.64868e-005
798 640865660.000000 291.840000 8.64868e-005
799 640865740.000000 291.996000 8.64868e-005
800 640865820.000000 292.149500 8.6606e-005
801 640865900.000000 292.309000 8.64868e-005
802 640865980.000000 292.459000 8.65762e-005
803 640866060.000000 292.617000 8.65166e-005
804 640866140.000000 292.769000 8.64868e-005
805 640866220.000000 292.926000 8.65166e-005
806 640866300.000000 293.083000 8.64868e-005
807 640866380.000000 293.233500 8.65166e-005
808 640866460.000000 293.390500 8.65166e-005
809 640866540.000000 293.549500 8.65762e-005
810 640866620.000000 293.706500 8.65762e-005
811 640866700.000000 293.859000 8.6457e-005
812 640866780.000000 294.012000 8.64868e-005
813 640866860.000000 294.170000 8.63676e-005
814 640866940.000000 294.325500 8.6457e-005
815 640867020.000000 294.476500 8.64868e-005
816 640867100.000000 294.634000 8.64272e-005
817 640867180.000000 294.786500 8.6457e-005
818 640867260.000000 294.943000 8.64272e-005
819 640867340.000000 295.096000 8.64272e-005
820 640867420.000000 295.248500 8.63378e-005
821 640867500.000000 295.403500 8.63676e-005
822 640867580.000000 295.559500 8.64272e-005
823 640867660.000000 295.714500 8.63378e-005
824 640867740.000000 295.869500 8.63676e-005
825 640867820.000000 296.024000 8.63378e-005
826 640867900.000000 296.181000 8.63378e-005
827 640867980.000000 296.337000 8.63378e-005
828 640868060.000000 296.490000 8.6308e-005
829 640868140.000000 296.648000 8.63676e-005
830 640868220.000000 296.802500 8.6308e-005
831 640868300.000000 296.958000 8.6308e-005
832 640868380.000000 297.113500 8.6308e-005
833 640868460.000000 297.267000 8.61888e-005
834 640868540.000000 297.424500 8.62484e-005
835 640868620.000000 297.578000 8.62186e-005
836 640868700.000000 297.736000 8.6308e-005
837 640868780.000000 297.890000 8.63676e-005
838 640868861.000000 298.045000 8.63378e-005
839 640868940.000000 298.200000 8.62186e-005
840 640869020.000000 298.357500 8.62186e-005
841 640869100.000000 298.513500 8.61888e-005
842 640869180.000000 298.667500 8.61888e-005
843 640869260.000000 298.823000 8.62186e-005
844 640869340.000000 298.979500 8.62484e-005
845 640869420.000000 299.135000 8.62484e-005
846 640869500.000000 299.287000 8.62484e-005
847 640869580.000000 299.445000 8.62186e-005
848 640869660.000000 299.597000 8.6308e-005
849 640869740.000000 299.756000 8.6308e-005
850 640869820.000000 299.908500 8.61292e-005
851 640869900.000000 300.063500 8.61888e-005
852 640869980.000000 300.218000 8.61888e-005
853 640870060.000000 300.373500 8.61888e-005
854 640870140.000000 300.524500 8.62186e-005
855 640870220.000000 300.682500 8.61888e-005
856 640870300.000000 300.834500 8.6308e-005
857 640870380.000000 300.992500 8.62186e-005
858 640870460.000000 301.145000 8.63378e-005
859 640870540.000000 301.302500 8.62484e-005
860 640870620.000000 301.460500 8.61888e-005
861 640870700.000000 301.611000 8.61888e-005
862 640870780.000000 301.765500 8.61888e-005
863 640870860.000000 301.920500 8.6159e-005
864 640870940.000000 302.074500 8.62484e-005
865 640871020.000000 302.233000 8.62186e-005
866 640871100.000000 302.385500 8.61888e-005
867 640871180.000000 302.542500 8.6159e-005
868 640871260.000000 302.697500 8.62186e-005
869 640871340.000000 302.853500 8.6159e-005
870 640871420.000000 303.008500 8.6159e-005
871 640871500.000000 303.162000 8.62186e-005
872 640871580.000000 303.317000 8.6159e-005
873 640871660.000000 303.475000 8.62186e-005
874 640871740.000000 303.628000 8.6159e-005
875 640871820.000000 303.785500 8.61888e-005
876 640871900.000000 303.939000 8.61292e-005
877 640871980.000000 304.097500 8.61888e-005
878 640872060.000000 304.251000 8.61888e-005
879 640872140.000000 304.406000 8.60994e-005
880 640872220.000000 304.561500 8.6159e-005
881 640872300.000000 304.716500 8.6159e-005
882 640872380.000000 304.869000 8.6159e-005
883 640872460.000000 305.027000 8.60994e-005
884 640872540.000000 305.179500 8.60994e-005
885 640872620.000000 305.335000 8.60994e-005
886 640872700.000000 305.489000 8.60994e-005
887 640872780.000000 305.642000 8.60994e-005
888 640872860.000000 305.798000 8.6159e-005
889 640872940.000000 305.951000 8.60994e-005
890 640873020.000000 306.108500 8.60696e-005
891 640873100.000000 306.262500 8.601e-005
892 640873180.000000 306.419000 8.60696e-005
893 640873260.000000 306.573500 8.601e-005
894 640873340.000000 306.728500 8.59802e-005
895 640873420.000000 306.883000 8.601e-005
896 640873500.000000 307.040500 8.601e-005
897 640873580.000000 307.192500 8.59206e-005
898 640873660.000000 307.351500 8.59504e-005
899 640873740.000000 307.504500 8.59206e-005
900 640873820.000000 307.662500 8.59802e-005
901 640873900.000000 307.815000 8.58908e-005
902 640873980.000000 307.971500 8.59504e-005
903 640874060.000000 308.126000 8.60398e-005
904 640874140.000000 308.283000 8.601e-005
905 640874220.000000 308.436000 8.60398e-005
906 640874300.000000 308.591500 8.59504e-005
907 640874380.000000 308.746500 8.601e-005
908 640874460.000000 308.905500 8.601e-005
909 640874540.000000 309.058500 8.59802e-005
910 640874620.000000 309.212000 8.601e-005
911 640874700.000000 309.367000 8.59206e-005
912 640874780.000000 309.522500 8.601e-005
913 640874860.000000 309.678000 8.601e-005
914 640874940.000000 309.833500 8.60398e-005
915 640875020.000000 309.984500 8.60398e-005
916 640875100.000000 310.143500 8.601e-005
917 640875180.000000 310.299000 8.60398e-005
918 640875260.000000 310.452500 8.59504e-005
919 640875340.000000 310.608500 8.60398e-005
920 640875420.000000 310.759500 8.60696e-005
921 640875500.000000 310.916000 8.60398e-005
922 640875580.000000 311.070500 8.60696e-005
923 640875660.000000 311.224500 8.60398e-005
924 640875740.000000 311.381000 8.60696e-005
925 640875820.000000 311.537000 8.60994e-005
926 640875900.000000 311.691000 8.59802e-005
927 640875980.000000 311.848000 8.60994e-005
928 640876060.000000 312.000500 8.59206e-005
929 640876140.000000 312.158000 8.59504e-005
930 640876220.000000 312.310500 8.601e-005
931 640876300.000000 312.467500 8.601e-005
932 640876380.000000 312.621500 8.60696e-005
933 640876460.000000 312.770500 8.5861e-005
934 640876540.000000 312.934500 8.59802e-005
935 640876620.000000 313.087500 8.58908e-005
936 640876700.000000 313.243500 8.59802e-005
937 640876780.000000 313.398500 8.59504e-005
938 640876860.000000 313.554000 8.58908e-005
939 640876940.000000 313.710000 8.59504e-005
940 640877020.000000 313.866000 8.59206e-005
941 640877100.000000 314.020500 8.59504e-005
942 640877180.000000 314.178500 8.59802e-005
943 640877260.000000 314.330500 8.59206e-005
944 640877340.000000 314.488000 8.58908e-005
945 640877420.000000 314.642000 8.58908e-005
946 640877500.000000 314.798500 8.58908e-005
947 640877580.000000 314.952500 8.58908e-005
948 640877660.000000 315.103500 8.58908e-005
949 640877740.000000 315.261000 8.5861e-005
950 640877820.000000 315.417000 8.58908e-005
951 640877900.000000 315.569000 8.58908e-005
952 640877980.000000 315.723000 8.5861e-005
953 640878060.000000 315.876500 8.5861e-005
954 640878140.000000 316.029500 8.59206e-005
955 640878220.000000 316.186500 8.58014e-005
956 640878300.000000 316.341000 8.58014e-005
957 640878380.000000 316.496500 8.57715e-005
958 640878460.000000 316.653500 8.58014e-005
959 640878540.000000 316.810000 8.58312e-005
960 640878620.000000 316.962000 8.5861e-005
961 640878700.000000 317.114000 8.59206e-005
962 640878780.000000 317.273000 8.57715e-005
963 640878860.000000 317.427000 8.58014e-005
964 640878940.000000 317.582500 8.5861e-005
965 640879020.000000 317.739500 8.58014e-005
966 640879100.000000 317.893000 8.58908e-005
967 640879180.000000 318.051500 8.57715e-005
968 640879260.000000 318.205000 8.58312e-005
969 640879340.000000 318.360500 8.58014e-005
970 640879420.000000 318.516000 8.57417e-005
971 640879500.000000 318.673000 8.58014e-005
972 640879580.000000 318.828500 8.57715e-005
973 640879660.000000 318.983500 8.5861e-005
974 640879740.000000 319.137500 8.58312e-005
975 640879820.000000 319.296500 8.58014e-005
976 640879900.000000 319.448500 8.58014e-005
977 640879980.000000 319.604000 8.58312e-005
978 640880060.000000 319.758000 8.5861e-005
979 640880140.000000 319.914000 8.56821e-005
980 640880220.000000 320.069500 8.5861e-005
981 640880300.000000 320.225500 8.58312e-005
982 640880380.000000 320.378500 8.58014e-005
983 640880461.000000 320.536000 8.57715e-005
984 640880540.000000 320.686500 8.57715e-005
985 640880620.000000 320.843500 8.58312e-005
986 640880700.000000 320.996000 8.5861e-005
987 640880780.000000 321.150500 8.57715e-005
988 640880860.000000 321.305000 8.57715e-005
989 640880940.000000 321.461500 8.56523e-005
990 640881020.000000 321.618000 8.57715e-005
991 640881100.000000 321.770500 8.57119e-005
992 640881180.000000 321.924500 8.56523e-005
993 640881260.000000 322.083000 8.57417e-005
994 640881340.000000 322.240500 8.56821e-005
995 640881420.000000 322.391000 8.57119e-005
996 640881500.000000 322.546500 8.56821e-005
997 640881580.000000 322.701000 8.57119e-005
998 640881660.000000 322.860500 8.57417e-005
999 640881740.000000 323.012000 8.56225e-005
1000 640881820.000000 323.164500 8.56821e-005
1001 640881900.000000 323.323500 8.56523e-005
1002 640881980.000000 323.480000 8.57417e-005
1003 640882060.000000 323.634000 8.57119e-005
1004 640882140.000000 323.788000 8.56523e-005
1005 640882220.000000 323.945500 8.56821e-005
1006 640882300.000000 324.103500 8.55629e-005
1007 640882380.000000 324.256000 8.56523e-005
1008 640882460.000000 324.413000 8.56225e-005
1009 640882540.000000 324.566500 8.56225e-005
1010 640882620.000000 324.722500 8.56821e-005
1011 640882700.000000 324.877500 8.56225e-005
1012 640882780.000000 325.032500 8.56821e-005
1013 640882860.000000 325.186500 8.55927e-005
1014 640882940.000000 325.343500 8.56523e-005
1015 640883020.000000 325.494000 8.56523e-005
1016 640883100.000000 325.652500 8.56225e-005
1017 640883180.000000 325.805000 8.55927e-005
1018 640883260.000000 325.961000 8.55927e-005
1019 640883340.000000 326.114000 8.55629e-005
1020 640883420.000000 326.268000 8.56225e-005
1021 640883500.000000 326.422500 8.56523e-005
1022 640883580.000000 326.579500 8.56821e-005
1023 640883660.000000 326.732000 8.56523e-005
1024 640883740.000000 326.889500 8.56225e-005
1025 640883820.000000 327.042500 8.55927e-005
1026 640883900.000000 327.200000 8.55927e-005
1027 640883980.000000 327.353000 8.55927e-005
1028 640884060.000000 327.508000 8.55331e-005
1029 640884140.000000 327.664000 8.55331e-005
1030 640884220.000000 327.820500 8.55629e-005
1031 640884300.000000 327.974000 8.55331e-005
1032 640884380.000000 328.132000 8.55927e-005
1033 640884460.000000 328.286500 8.56523e-005
1034 640884540.000000 328.440500 8.55927e-005
1035 640884620.000000 328.597000 8.55629e-005
1036 640884700.000000 328.751000 8.55331e-005
1037 640884780.000000 328.909500 8.55927e-005
1038 640884860.000000 329.062500 8.55629e-005
1039 640884940.000000 329.222500 8.55629e-005
1040 640885020.000000 329.377000 8.55629e-005
1041 640885100.000000 329.530500 8.55629e-005
1042 640885180.000000 329.684000 8.56225e-005
1043 640885260.000000 329.839000 8.55331e-005
1044 640885340.000000 329.997500 8.55927e-005
1045 640885420.000000 330.151500 8.55331e-005
1046 640885500.000000 330.303500 8.56523e-005
1047 640885580.000000 330.458500 8.55331e-005
1048 640885660.000000 330.614500 8.55629e-005
1049 640885740.000000 330.772000 8.55629e-005
1050 640885820.000000 330.924500 8.55033e-005
1051 640885900.000000 331.075500 8.55629e-005
1052 640885980.000000 331.233000 8.55331e-005
1053 640886060.000000 331.390000 8.54735e-005
1054 640886140.000000 331.543000 8.55033e-005
1055 640886220.000000 331.699000 8.54735e-005
1056 640886300.000000 331.851500 8.54437e-005
1057 640886380.000000 332.010500 8.54139e-005
1058 640886460.000000 332.164000 8.54735e-005
1059 640886540.000000 332.317500 8.54735e-005
1060 640886620.000000 332.475000 8.54437e-005
1061 640886700.000000 332.627500 8.54437e-005
1062 640886780.000000 332.784500 8.53841e-005
1063 640886860.000000 332.938500 8.53841e-005
1064 640886940.000000 333.093500 8.54139e-005
1065 640887020.000000 333.251000 8.53543e-005
1066 640887100.000000 333.404000 8.54437e-005
1067 640887180.000000 333.560500 8.53245e-005
1068 640887260.000000 333.716500 8.53543e-005
1069 640887340.000000 333.871500 8.53841e-005
1070 640887420.000000 334.027500 8.53245e-005
1071 640887500.000000 334.185000 8.53543e-005
1072 640887580.000000 334.338000 8.53245e-005
1073 640887660.000000 334.495500 8.53543e-005
1074 640887740.000000 334.648500 8.54139e-005
1075 640887820.000000 334.805000 8.52947e-005
1076 640887900.000000 334.959500 8.53543e-005
1077 640887980.000000 335.113500 8.52947e-005
1078 640888060.000000 335.270000 8.53245e-005
1079 640888140.000000 335.423000 8.52947e-005
1080 640888220.000000 335.582000 8.53245e-005
1081 640888300.000000 335.735000 8.53245e-005
1082 640888380.000000 335.889000 8.53245e-005
1083 640888460.000000 336.042500 8.52947e-005
1084 640888540.000000 336.198000 8.53245e-005
1085 640888620.000000 336.351500 8.52351e-005
1086 640888700.000000 336.507000 8.53245e-005
1087 640888780.000000 336.662000 8.52351e-005
1088 640888860.000000 336.816000 8.52351e-005
1089 640888940.000000 336.969500 8.52351e-005
1090 640889020.000000 337.125500 8.52053e-005
1091 640889100.000000 337.282500 8.52649e-005
1092 640889180.000000 337.434500 8.52053e-005
1093 640889260.000000 337.591500 8.52053e-005
1094 640889340.000000 337.744500 8.52351e-005
1095 640889420.000000 337.901000 8.52649e-005
1096 640889500.000000 338.059500 8.52053e-005
1097 640889580.000000 338.211000 8.52053e-005
1098 640889660.000000 338.365500 8.52053e-005
1099 640889740.000000 338.521000 8.52053e-005
1100 640889820.000000 338.677500 8.52351e-005
1101 640889900.000000 338.833000 8.52053e-005
1102 640889980.000000 338.988000 8.52351e-005
1103 640890060.000000 339.144000 8.52351e-005
1104 640890140.000000 339.302500 8.51159e-005
1105 640890220.000000 339.458000 8.51159e-005
1106 640890300.000000 339.615500 8.51159e-005
1107 640890380.000000 339.767500 8.51457e-005
1108 640890460.000000 339.923000 8.51755e-005
1109 640890540.000000 340.078500 8.51159e-005
1110 640890620.000000 340.230000 8.51457e-005
1111 640890700.000000 340.389000 8.50563e-005
1112 640890780.000000 340.541000 8.50861e-005
1113 640890860.000000 340.698500 8.51457e-005
1114 640890940.000000 340.850500 8.50861e-005
1115 640891020.000000 341.006500 8.50861e-005
1116 640891100.000000 341.163500 8.50265e-005
1117 640891180.000000 341.316500 8.50265e-005
1118 640891260.000000 341.471500 8.49669e-005
1119 640891340.000000 341.626500 8.50265e-005
1120 640891420.000000 341.782000 8.50861e-005
1121 640891500.000000 341.937500 8.49371e-005
1122 640891580.000000 342.094000 8.49669e-005
1123 640891660.000000 342.245500 8.49669e-005
1124 640891740.000000 342.403500 8.49967e-005
1125 640891820.000000 342.555000 8.49371e-005
1126 640891900.000000 342.712500 8.49371e-005
1127 640891980.000000 342.866500 8.49073e-005
1128 640892060.000000 343.020500 8.49073e-005
1129 640892140.000000 343.177000 8.49669e-005
1130 640892220.000000 343.330000 8.49073e-005
1131 640892300.000000 343.487500 8.48775e-005
1132 640892380.000000 343.641000 8.48775e-005
1133 640892460.000000 343.793500 8.48775e-005
1134 640892540.000000 343.953000 8.48775e-005
1135 640892620.000000 344.110500 8.48775e-005
1136 640892700.000000 344.262500 8.49073e-005
1137 640892780.000000 344.418500 8.49073e-005
1138 640892860.000000 344.575000 8.48775e-005
1139 640892940.000000 344.734500 8.49073e-005
1140 640893020.000000 344.885000 8.49073e-005
1141 640893100.000000 345.037500 8.48775e-005
1142 640893180.000000 345.196000 8.48179e-005
1143 640893260.000000 345.351500 8.47881e-005
1144 640893340.000000 345.505500 8.48477e-005
1145 640893420.000000 345.661000 8.47881e-005
1146 640893500.000000 345.814000 8.48179e-005
1147 640893580.000000 345.971500 8.48775e-005
1148 640893660.000000 346.124500 8.47881e-005
1149 640893740.000000 346.279000 8.47881e-005
1150 640893820.000000 346.433000 8.47285e-005
1151 640893900.000000 346.587500 8.47881e-005
1152 640893980.000000 346.743000 8.48775e-005
1153 640894060.000000 346.899000 8.48179e-005
1154 640894140.000000 347.052000 8.48775e-005
1155 640894220.000000 347.208500 8.48775e-005
1156 640894300.000000 347.360500 8.47881e-005
1157 640894380.000000 347.519000 8.48179e-005
1158 640894460.000000 347.674500 8.47881e-005
1159 640894540.000000 347.827500 8.48179e-005
1160 640894620.000000 347.984500 8.47881e-005
1161 640894700.000000 348.137500 8.47881e-005
1162 640894780.000000 348.294000 8.47285e-005
1163 640894860.000000 348.447500 8.46987e-005
1164 640894940.000000 348.603500 8.47285e-005
1165 640895020.000000 348.758500 8.47583e-005
1166 640895100.000000 348.915000 8.47881e-005
1167 640895180.000000 349.068500 8.46689e-005
1168 640895260.000000 349.227500 8.46391e-005
1169 640895340.000000 349.381000 8.46987e-005
1170 640895420.000000 349.540500 8.46093e-005
1171 640895500.000000 349.696000 8.47285e-005
1172 640895580.000000 349.851000 8.46689e-005
1173 640895660.000000 350.007000 8.46689e-005
1174 640895740.000000 350.159000 8.45795e-005
1175 640895820.000000 350.317500 8.46689e-005
1176 640895900.000000 350.469000 8.46987e-005
1177 640895980.000000 350.624500 8.45795e-005
1178 640896060.000000 350.779500 8.45795e-005
1179 640896140.000000 350.932000 8.46093e-005
1180 640896220.000000 351.089500 8.46093e-005
1181 640896300.000000 351.246000 8.46689e-005
1182 640896380.000000 351.397500 8.45199e-005
1183 640896460.000000 351.552500 8.45497e-005
1184 640896540.000000 351.708000 8.46093e-005
1185 640896620.000000 351.862500 8.45497e-005
1186 640896700.000000 352.021000 8.45795e-005
1187 640896780.000000 352.172500 8.45497e-005
1188 640896860.000000 352.330000 8.45497e-005
1189 640896940.000000 352.482000 8.44304e-005
1190 640897020.000000 352.638500 8.449e-005
1191 640897100.000000 352.794000 8.45497e-005
1192 640897180.000000 352.946500 8.44304e-005
1193 640897260.000000 353.102000 8.44602e-005
1194 640897340.000000 353.260000 8.44602e-005
1195 640897420.000000 353.413000 8.45199e-005
1196 640897500.000000 353.569500 8.45199e-005
1197 640897580.000000 353.723500 8.44304e-005
1198 640897660.000000 353.878500 8.449e-005
1199 640897740.000000 354.035500 8.43708e-005
1200 640897820.000000 354.187000 8.44304e-005
1201 640897900.000000 354.346500 8.43708e-005
1202 640897980.000000 354.501000 8.43708e-005
1203 640898060.000000 354.659500 8.43112e-005
1204 640898140.000000 354.814500 8.42814e-005
1205 640898220.000000 354.968000 8.43112e-005
1206 640898300.000000 355.124000 8.42516e-005
1207 640898380.000000 355.280000 8.43112e-005
1208 640898460.000000 355.435000 8.4341e-005
1209 640898540.000000 355.591000 8.42814e-005
1210 640898620.000000 355.742000 8.42516e-005
1211 640898700.000000 355.901000 8.43708e-005
1212 640898780.000000 356.053500 8.43112e-005
1213 640898860.000000 356.209500 8.43112e-005
1214 640898940.000000 356.363500 8.42516e-005
1215 640899020.000000 356.518000 8.42516e-005
1216 640899100.000000 356.671500 8.42516e-005
1217 640899180.000000 356.828000 8.43112e-005
1218 640899260.000000 356.984000 8.42516e-005
1219 640899340.000000 357.139500 8.42516e-005
1220 640899420.000000 357.294500 8.42516e-005
1221 640899500.000000 357.449000 8.42218e-005
1222 640899580.000000 357.604500 8.42218e-005
1223 640899660.000000 357.757000 8.41324e-005
1224 640899740.000000 357.915000 8.41622e-005
1225 640899820.000000 358.068500 8.4192e-005
1226 640899900.000000 358.222000 8.41026e-005
1227 640899980.000000 358.378500 8.4192e-005
1228 640900060.000000 358.530500 8.41026e-005
1229 640900140.000000 358.687500 8.41026e-005
1230 640900220.000000 358.842000 8.41026e-005
1231 640900300.000000 358.996500 8.4043e-005
1232 640900380.000000 359.156000 8.41324e-005
1233 640900460.000000 359.312000 8.41026e-005
1234 640900540.000000 359.466000 8.41026e-005
1235 640900620.000000 359.620500 8.41026e-005
1236 640900700.000000 359.777500 8.4043e-005
1237 640900780.000000 359.934000 8.40132e-005
1238 640900860.000000 360.087500 8.40132e-005
1239 640900940.000000 360.243500 8.4043e-005
1240 640901020.000000 360.399500 8.4043e-005
1241 640901100.000000 360.553000 8.39536e-005
1242 640901180.000000 360.710500 8.39834e-005
1243 640901260.000000 360.864000 8.39238e-005
1244 640901340.000000 361.017500 8.39834e-005
1245 640901420.000000 361.174500 8.39834e-005
1246 640901500.000000 361.325500 8.39238e-005
1247 640901580.000000 361.485000 8.39536e-005
1248 640901660.000000 361.637500 8.3894e-005
1249 640901740.000000 361.793500 8.3894e-005
1250 640901820.000000 361.951000 8.38344e-005
1251 640901900.000000 362.103000 8.39536e-005
1252 640901980.000000 362.262000 8.39536e-005
1253 640902060.000000 362.416500 8.38344e-005
1254 640902140.000000 362.571500 8.38642e-005
1255 640902220.000000 362.726000 8.38642e-005
1256 640902300.000000 362.881500 8.39238e-005
1257 640902380.000000 363.035500 8.38642e-005
1258 640902460.000000 363.192000 8.38344e-005
1259 640902540.000000 363.343000 8.3894e-005
1260 640902620.000000 363.502500 8.38046e-005
1261 640902700.000000 363.658000 8.38046e-005
1262 640902780.000000 363.811500 8.38046e-005
1263 640902860.000000 363.967500 8.38046e-005
1264 640902940.000000 364.120000 8.37748e-005
1265 640903020.000000 364.278500 8.36556e-005
1266 640903100.000000 364.432500 8.3745e-005
1267 640903180.000000 364.589000 8.37152e-005
1268 640903260.000000 364.744500 8.3745e-005
1269 640903340.000000 364.901500 8.3745e-005
1270 640903420.000000 365.059000 8.36556e-005
1271 640903500.000000 365.214000 8.36556e-005
1272 640903580.000000 365.369000 8.36258e-005
1273 640903660.000000 365.521500 8.3596e-005
1274 640903740.000000 365.673500 8.35662e-005
1275 640903820.000000 365.833500 8.36258e-005
1276 640903900.000000 365.989500 8.36258e-005
1277 640903980.000000 366.140500 8.35662e-005
1278 640904060.000000 366.294500 8.3596e-005
1279 640904140.000000 366.451000 8.35662e-005
1280 640904220.000000 366.608500 8.3447e-005
1281 640904300.000000 366.761000 8.35364e-005
1282 640904380.000000 366.913000 8.35066e-005
1283 640904460.000000 367.072500 8.34768e-005
1284 640904540.000000 367.224500 8.35066e-005
1285 640904620.000000 367.381500 8.3447e-005
1286 640904700.000000 367.538000 8.35364e-005
1287 640904780.000000 367.690500 8.34172e-005
1288 640904860.000000 367.847000 8.3447e-005
1289 640904940.000000 367.999500 8.33278e-005
1290 640905020.000000 368.155500 8.33576e-005
1291 640905100.000000 368.310500 8.33874e-005
1292 640905180.000000 368.465500 8.33278e-005
1293 640905260.000000 368.621000 8.33576e-005
1294 640905340.000000 368.778000 8.32384e-005
1295 640905420.000000 368.929500 8.32384e-005
1296 640905500.000000 369.087000 8.32682e-005
1297 640905580.000000 369.239500 8.32384e-005
1298 640905660.000000 369.399000 8.32384e-005
1299 640905740.000000 369.554000 8.31787e-005
1300 640905820.000000 369.709500 8.32384e-005
1301 640905900.000000 369.867500 8.31489e-005
1302 640905980.000000 370.020500 8.31489e-005
1303 640906060.000000 370.179500 8.32085e-005
1304 640906140.000000 370.332500 8.32085e-005
1305 640906220.000000 370.487500 8.31489e-005
1306 640906300.000000 370.643500 8.31191e-005
1307 640906380.000000 370.800000 8.31489e-005
1308 640906460.000000 370.953500 8.31191e-005
1309 640906540.000000 371.110000 8.29999e-005
1310 640906620.000000 371.261500 8.30595e-005
1311 640906700.000000 371.419500 8.30297e-005
1312 640906780.000000 371.574500 8.30297e-005
1313 640906860.000000 371.726500 8.30893e-005
1314 640906940.000000 371.881500 8.29999e-005
1315 640907020.000000 372.038000 8.30893e-005
1316 640907100.000000 372.195500 8.29701e-005
1317 640907180.000000 372.350500 8.30297e-005
1318 640907260.000000 372.506000 8.29999e-005
1319 640907340.000000 372.661000 8.29999e-005
1320 640907420.000000 372.817000 8.29105e-005
1321 640907500.000000 372.970500 8.28509e-005
1322 640907580.000000 373.127500 8.29403e-005
1323 640907660.000000 373.279000 8.28807e-005
1324 640907740.000000 373.435000 8.29105e-005
1325 640907820.000000 373.589500 8.28509e-005
1326 640907900.000000 373.742000 8.28509e-005
1327 640907980.000000 373.901000 8.29105e-005
1328 640908060.000000 374.053500 8.28509e-005
1329 640908140.000000 374.209500 8.28509e-005
1330 640908220.000000 374.363500 8.28509e-005
1331 640908300.000000 374.519000 8.28211e-005
1332 640908380.000000 374.676000 8.28509e-005
1333 640908460.000000 374.831500 8.28211e-005
1334 640908540.000000 374.986000 8.27913e-005
1335 640908620.000000 375.143000 8.28509e-005
1336 640908700.000000 375.296000 8.27317e-005
1337 640908780.000000 375.455500 8.28211e-005
1338 640908860.000000 375.607500 8.27615e-005
1339 640908940.000000 375.765000 8.27317e-005
1340 640909020.000000 375.919000 8.27615e-005
1341 640909100.000000 376.073000 8.27317e-005
1342 640909180.000000 376.229000 8.27019e-005
1343 640909260.000000 376.385000 8.26423e-005
1344 640909340.000000 376.539000 8.26423e-005
1345 640909420.000000 376.695000 8.26423e-005
1346 640909500.000000 376.846500 8.26423e-005
1347 640909580.000000 377.005000 8.25827e-005
1348 640909660.000000 377.158500 8.25529e-005
1349 640909740.000000 377.315000 8.25827e-005
1350 640909820.000000 377.470000 8.25529e-005
1351 640909900.000000 377.626000 8.25529e-005
1352 640909980.000000 377.781000 8.25827e-005
1353 640910060.000000 377.937500 8.25231e-005
1354 640910140.000000 378.090000 8.25529e-005
1355 640910220.000000 378.246500 8.24933e-005
1356 640910300.000000 378.399000 8.24933e-005
1357 640910380.000000 378.555500 8.24039e-005
1358 640910460.000000 378.711500 8.23741e-005
1359 640910540.000000 378.864000 8.24337e-005
1360 640910620.000000 379.020500 8.23741e-005
1361 640910700.000000 379.174500 8.24039e-005
1362 640910780.000000 379.330000 8.24039e-005
1363 640910860.000000 379.484500 8.24039e-005
1364 640910940.000000 379.639500 8.23741e-005
1365 640911020.000000 379.796500 8.22549e-005
1366 640911100.000000 379.955000 8.23741e-005
1367 640911180.000000 380.109000 8.22549e-005
1368 640911260.000000 380.263500 8.23145e-005
1369 640911340.000000 380.418500 8.22847e-005
1370 640911420.000000 380.577500 8.22251e-005
1371 640911500.000000 380.728000 8.23145e-005
1372 640911580.000000 380.883000 8.23145e-005
1373 640911660.000000 381.042000 8.22847e-005
1374 640911740.000000 381.198000 8.22549e-005
1375 640911820.000000 381.352000 8.21953e-005
1376 640911900.000000 381.504000 8.22549e-005
1377 640911980.000000 381.659500 8.22549e-005
1378 640912060.000000 381.814000 8.22549e-005
1379 640912140.000000 381.968000 8.22251e-005
1380 640912220.000000 382.122000 8.21655e-005
1381 640912300.000000 382.280500 8.21655e-005
1382 640912380.000000 382.433500 8.21357e-005
1383 640912460.000000 382.591500 8.21059e-005
1384 640912540.000000 382.746500 8.20463e-005
1385 640912620.000000 382.901500 8.20761e-005
1386 640912700.000000 383.055500 8.21357e-005
1387 640912780.000000 383.211500 8.21655e-005
1388 640912860.000000 383.365500 8.21059e-005
1389 640912940.000000 383.522000 8.21357e-005
1390 640913020.000000 383.676500 8.21655e-005
1391 640913100.000000 383.829000 8.21357e-005
1392 640913180.000000 383.985000 8.21059e-005
1393 640913260.000000 384.141000 8.21059e-005
1394 640913340.000000 384.295000 8.20165e-005
1395 640913420.000000 384.450500 8.20165e-005
1396 640913500.000000 384.608000 8.20761e-005
1397 640913580.000000 384.763000 8.20165e-005
1398 640913660.000000 384.918500 8.20761e-005
1399 640913740.000000 385.074000 8.19867e-005
1400 640913820.000000 385.229000 8.20463e-005
1401 640913900.000000 385.385500 8.20165e-005
1402 640913980.000000 385.540500 8.19867e-005
1403 640914060.000000 385.693500 8.1927e-005
1404 640914140.000000 385.852000 8.1927e-005
1405 640914220.000000 386.003500 8.19569e-005
1406 640914300.000000 386.162500 8.19569e-005
1407 640914380.000000 386.317000 8.18972e-005
1408 640914460.000000 386.470500 8.18674e-005
1409 640914540.000000 386.627500 8.1927e-005
1410 640914620.000000 386.780000 8.18674e-005
1411 640914700.000000 386.936500 8.18376e-005
1412 640914780.000000 387.091000 8.18078e-005
1413 640914860.000000 387.245500 8.18078e-005
1414 640914940.000000 387.402000 8.18078e-005
1415 640915020.000000 387.555000 8.1778e-005
1416 640915100.000000 387.712500 8.18376e-005
1417 640915180.000000 387.869500 8.1778e-005
1418 640915260.000000 388.020000 8.1778e-005
1419 640915340.000000 388.175000 8.15992e-005
1420 640915420.000000 388.332000 8.17482e-005
1421 640915500.000000 388.488500 8.16886e-005
1422 640915580.000000 388.641000 8.17184e-005
1423 640915660.000000 388.793000 8.17184e-005
1424 640915740.000000 388.951000 8.16588e-005
1425 640915820.000000 389.104500 8.16886e-005
1426 640915900.000000 389.260000 8.1629e-005
1427 640915980.000000 389.413000 8.15992e-005
1428 640916060.000000 389.569000 8.16588e-005
1429 640916140.000000 389.723500 8.15694e-005
1430 640916220.000000 389.882000 8.16588e-005
1431 640916300.000000 390.036500 8.15694e-005
1432 640916380.000000 390.193500 8.1629e-005
1433 640916460.000000 390.346500 8.16886e-005
1434 640916540.000000 390.505000 8.15396e-005
1435 640916620.000000 390.660000 8.1629e-005
1436 640916700.000000 390.813500 8.15992e-005
1437 640916780.000000 390.970500 8.15992e-005
1438 640916860.000000 391.124000 8.15992e-005
1439 640916940.000000 391.282500 8.15396e-005
1440 640917020.000000 391.437000 8.15992e-005
1441 640917100.000000 391.591000 8.15396e-005
1442 640917180.000000 391.747500 8.15694e-005
1443 640917260.000000 391.903000 8.15694e-005
1444 640917340.000000 392.055500 8.15396e-005
1445 640917420.000000 392.211500 8.15396e-005
1446 640917500.000000 392.364000 8.15098e-005
1447 640917580.000000 392.523000 8.14502e-005
1448 640917660.000000 392.676500 8.14502e-005
1449 640917740.000000 392.833000 8.15098e-005
1450 640917820.000000 392.987000 8.15396e-005
1451 640917900.000000 393.142500 8.15098e-005
1452 640917980.000000 393.298000 8.15098e-005
1453 640918060.000000 393.455000 8.15098e-005
1454 640918140.000000 393.606000 8.148e-005
1455 640918220.000000 393.764500 8.148e-005
1456 640918300.000000 393.919500 8.13906e-005
1457 640918380.000000 394.072500 8.15098e-005
1458 640918460.000000 394.228500 8.13608e-005
1459 640918540.000000 394.382000 8.14204e-005
1460 640918620.000000 394.538000 8.14204e-005
1461 640918700.000000 394.692000 8.14502e-005
1462 640918780.000000 394.844500 8.14204e-005
1463 640918860.000000 395.003000 8.13906e-005
1464 640918940.000000 395.160500 8.13906e-005
1465 640919021.000000 395.315000 8.13608e-005
1466 640919100.000000 395.468500 8.13906e-005
1467 640919180.000000 395.623000 8.14204e-005
1468 640919260.000000 395.779000 8.13608e-005
1469 640919340.000000 395.933000 8.14204e-005
1470 640919420.000000 396.090000 8.1331e-005
1471 640919500.000000 396.244500 8.13012e-005
1472 640919580.000000 396.400500 8.13012e-005
1473 640919660.000000 396.557000 8.13012e-005
1474 640919740.000000 396.710500 8.1331e-005
1475 640919820.000000 396.864500 8.13012e-005
1476 640919900.000000 397.021500 8.12416e-005
1477 640919980.000000 397.172000 8.13012e-005
1478 640920060.000000 397.331000 8.12118e-005
1479 640920140.000000 397.484000 8.12714e-005
1480 640920220.000000 397.641500 8.12714e-005
1481 640920300.000000 397.795500 8.12714e-005
1482 640920380.000000 397.951500 8.12714e-005
1483 640920460.000000 398.106500 8.12714e-005
1484 640920540.000000 398.263500 8.12416e-005
1485 640920620.000000 398.415500 8.1182e-005
1486 640920700.000000 398.573000 8.1182e-005
1487 640920780.000000 398.726500 8.1182e-005
1488 640920860.000000 398.883000 8.12416e-005
1489 640920940.000000 399.038500 8.12714e-005
1490 640921020.000000 399.190500 8.12118e-005
1491 640921100.000000 399.347000 8.11522e-005
1492 640921180.000000 399.500000 8.1182e-005
1493 640921260.000000 399.655500 8.11224e-005
1494 640921340.000000 399.810000 8.12118e-005
1495 640921420.000000 399.965500 8.11522e-005
1496 640921500.000000 400.121500 8.12118e-005
1497 640921580.000000 400.278000 8.10628e-005
1498 640921660.000000 400.432000 8.10628e-005
1499 640921740.000000 400.590000 8.10926e-005
1500 640921820.000000 400.744000 8.1033e-005
1501 640921900.000000 400.901000 8.10926e-005
1502 640921980.000000 401.052500 8.1033e-005
1503 640922060.000000 401.209500 8.10926e-005
1504 640922140.000000 401.366500 8.1033e-005
1505 640922220.000000 401.519500 8.10628e-005
1506 640922300.000000 401.678500 8.10926e-005
1507 640922380.000000 401.832000 8.10628e-005
1508 640922460.000000 401.988500 8.11224e-005
1509 640922540.000000 402.141500 8.11224e-005
1510 640922620.000000 402.292500 8.1033e-005
1511 640922700.000000 402.450500 8.10926e-005
1512 640922780.000000 402.606500 8.1033e-005
1513 640922860.000000 402.759000 8.10628e-005
1514 640922940.000000 402.915500 8.1033e-005
1515 640923020.000000 403.070000 8.1033e-005
1516 640923100.000000 403.227500 8.10032e-005
1517 640923180.000000 403.380500 8.09138e-005
1518 640923260.000000 403.535500 8.10032e-005
1519 640923340.000000 403.691000 8.09436e-005
1520 640923420.000000 403.846500 8.10032e-005
1521 640923500.000000 404.001500 8.09734e-005
1522 640923580.000000 404.156500 8.09436e-005
1523 640923660.000000 404.310500 8.09734e-005
1524 640923740.000000 404.464500 8.09436e-005
1525 640923820.000000 404.621000 8.08542e-005
1526 640923900.000000 404.773000 8.09734e-005
1527 640923980.000000 404.931500 8.09436e-005
1528 640924060.000000 405.084500 8.09138e-005
1529 640924140.000000 405.242500 8.08542e-005
1530 640924220.000000 405.399500 8.09138e-005
1531 640924300.000000 405.553000 8.08542e-005
1532 640924380.000000 405.711000 8.09138e-005
1533 640924460.000000 405.863000 8.0884e-005
1534 640924540.000000 406.019000 8.08244e-005
1535 640924620.000000 406.174500 8.08244e-005
1536 640924700.000000 406.328500 8.08244e-005
1537 640924780.000000 406.485000 8.0884e-005
1538 640924860.000000 406.641500 8.08244e-005
1539 640924940.000000 406.795000 8.0884e-005
1540 640925020.000000 406.953000 8.09138e-005
1541 640925100.000000 407.105000 8.08244e-005
1542 640925180.000000 407.262000 8.0884e-005
1543 640925260.000000 407.417000 8.08542e-005
1544 640925340.000000 407.570000 8.07946e-005
1545 640925420.000000 407.724500 8.07946e-005
1546 640925500.000000 407.881000 8.08244e-005
1547 640925580.000000 408.038000 8.08244e-005
1548 640925660.000000 408.191500 8.08542e-005
1549 640925740.000000 408.346500 8.07946e-005
1550 640925820.000000 408.502000 8.0884e-005
1551 640925900.000000 408.658000 8.07946e-005
1552 640925980.000000 408.812000 8.07648e-005
1553 640926060.000000 408.967000 8.0735e-005
1554 640926140.000000 409.120000 8.08244e-005
1555 640926220.000000 409.279500 8.08244e-005
1556 640926300.000000 409.429500 8.08542e-005
1557 640926380.000000 409.582500 8.08244e-005
1558 640926460.000000 409.740000 8.07946e-005
1559 640926540.000000 409.894500 8.08542e-005
1560 640926620.000000 410.047000 8.08244e-005
1561 640926700.000000 410.200500 8.08244e-005
1562 640926780.000000 410.358000 8.0884e-005
1563 640926860.000000 410.514500 8.07946e-005
1564 640926940.000000 410.668000 8.07946e-005
1565 640927020.000000 410.825500 8.0884e-005
1566 640927100.000000 410.980500 8.08542e-005
1567 640927180.000000 411.135000 8.0884e-005
1568 640927260.000000 411.291000 8.07946e-005
1569 640927340.000000 411.446000 8.07946e-005
1570 640927420.000000 411.601000 8.08244e-005
1571 640927500.000000 411.758000 8.08542e-005
1572 640927580.000000 411.912500 8.08542e-005
1573 640927660.000000 412.068000 8.07946e-005
1574 640927740.000000 412.225000 8.0884e-005
1575 640927820.000000 412.379000 8.08244e-005
1576 640927900.000000 412.535500 8.08244e-005
1577 640927980.000000 412.686500 8.08244e-005
1578 640928060.000000 412.845000 8.08244e-005
1579 640928140.000000 413.001000 8.07946e-005
1580 640928220.000000 413.154500 8.0735e-005
1581 640928300.000000 413.311000 8.07946e-005
1582 640928380.000000 413.463500 8.08244e-005
1583 640928460.000000 413.622000 8.0735e-005
1584 640928540.000000 413.775000 8.07946e-005
1585 640928620.000000 413.930000 8.0735e-005
1586 640928700.000000 414.086500 8.0735e-005
1587 640928780.000000 414.239500 8.0735e-005
1588 640928860.000000 414.396000 8.06754e-005
1589 640928940.000000 414.550000 8.06754e-005
1590 640929020.000000 414.704500 8.06754e-005
1591 640929100.000000 414.858000 8.07052e-005
1592 640929180.000000 415.015000 8.06754e-005
1593 640929260.000000 415.168500 8.0735e-005
1594 640929340.000000 415.327000 8.0735e-005
1595 640929420.000000 415.480000 8.06157e-005
1596 640929500.000000 415.636500 8.06754e-005
1597 640929580.000000 415.794000 8.07052e-005
1598 640929660.000000 415.946500 8.0735e-005
1599 640929740.000000 416.103500 8.07052e-005
1600 640929820.000000 416.255500 8.05859e-005
1601 640929900.000000 416.414000 8.06754e-005
1602 640929980.000000 416.567000 8.06754e-005
1603 640930060.000000 416.720000 8.0735e-005
1604 640930140.000000 416.878500 8.06754e-005
1605 640930220.000000 417.034500 8.06456e-005
1606 640930300.000000 417.192000 8.07052e-005
1607 640930380.000000 417.344000 8.0735e-005
1608 640930460.000000 417.496000 8.06754e-005
1609 640930540.000000 417.655000 8.07648e-005
1610 640930621.000000 417.810500 8.07052e-005
1611 640930700.000000 417.963000 8.07052e-005
1612 640930780.000000 418.118000 8.06754e-005
1613 640930860.000000 418.273000 8.07052e-005
1614 640930940.000000 418.428000 8.06456e-005
1615 640931020.000000 418.583000 8.07052e-005
1616 640931100.000000 418.737000 8.06754e-005
1617 640931180.000000 418.894500 8.06157e-005
1618 640931260.000000 419.047000 8.05859e-005
1619 640931340.000000 419.203500 8.06456e-005
1620 640931420.000000 419.359000 8.07052e-005
1621 640931500.000000 419.510500 8.06754e-005
1622 640931580.000000 419.668500 8.06754e-005
1623 640931660.000000 419.819500 8.06754e-005
1624 640931740.000000 419.976500 8.06456e-005
1625 640931820.000000 420.129000 8.05859e-005
1626 640931900.000000 420.285500 8.05561e-005
1627 640931980.000000 420.439500 8.05859e-005
1628 640932060.000000 420.597000 8.07052e-005
1629 640932140.000000 420.753500 8.06456e-005
1630 640932220.000000 420.907000 8.06754e-005
1631 640932300.000000 421.063000 8.06456e-005
1632 640932380.000000 421.219500 8.06456e-005
1633 640932460.000000 421.375000 8.06456e-005
1634 640932540.000000 421.528000 8.05263e-005
1635 640932620.000000 421.687000 8.06157e-005
1636 640932700.000000 421.841500 8.06157e-005
1637 640932780.000000 421.997000 8.06157e-005
1638 640932860.000000 422.151500 8.06456e-005
1639 640932940.000000 422.306000 8.05561e-005
1640 640933020.000000 422.464000 8.05859e-005
1641 640933100.000000 422.616500 8.06456e-005
1642 640933180.000000 422.774500 8.05859e-005
1643 640933260.000000 422.927500 8.07052e-005
1644 640933340.000000 423.083000 8.05859e-005
1645 640933420.000000 423.240500 8.05859e-005
1646 640933500.000000 423.391500 8.05561e-005
1647 640933580.000000 423.547000 8.05561e-005
1648 640933660.000000 423.703500 8.04965e-005
1649 640933740.000000 423.858000 8.05859e-005
1650 640933820.000000 424.011000 8.05859e-005
1651 640933900.000000 424.164500 8.05859e-005
1652 640933980.000000 424.321000 8.05859e-005
1653 640934060.000000 424.479500 8.05859e-005
1654 640934140.000000 424.630000 8.05561e-005
1655 640934220.000000 424.787000 8.06157e-005
1656 640934300.000000 424.941000 8.05859e-005
1657 640934380.000000 425.096000 8.06456e-005
1658 640934460.000000 425.250500 8.05263e-005
1659 640934540.000000 425.404500 8.05561e-005
1660 640934620.000000 425.560000 8.05859e-005
1661 640934700.000000 425.717500 8.05263e-005
1662 640934780.000000 425.869000 8.05859e-005
1663 640934860.000000 426.028500 8.05859e-005
1664 640934940.000000 426.180500 8.05561e-005
1665 640935020.000000 426.338500 8.05561e-005
1666 640935100.000000 426.491500 8.05561e-005
1667 640935180.000000 426.645500 8.06157e-005
1668 640935260.000000 426.804500 8.05561e-005
1669 640935340.000000 426.958000 8.04667e-005
1670 640935420.000000 427.115000 8.06157e-005
1671 640935500.000000 427.270000 8.05859e-005
1672 640935580.000000 427.425500 8.05263e-005
1673 640935660.000000 427.580000 8.05263e-005
1674 640935740.000000 427.736500 8.05263e-005
1675 640935820.000000 427.891000 8.04667e-005
1676 640935900.000000 428.045500 8.05263e-005
1677 640935980.000000 428.200000 8.05561e-005
1678 640936060.000000 428.355500 8.04965e-005
1679 640936140.000000 428.512500 8.05561e-005
1680 640936220.000000 428.666000 8.05263e-005
1681 640936300.000000 428.821000 8.05859e-005
1682 640936380.000000 428.972500 8.05263e-005
1683 640936460.000000 429.131500 8.05263e-005
1684 640936540.000000 429.286500 8.05859e-005
1685 640936620.000000 429.438500 8.05561e-005
1686 640936700.000000 429.597000 8.06157e-005
1687 640936780.000000 429.747000 8.05859e-005
1688 640936860.000000 429.904000 8.05561e-005
1689 640936940.000000 430.059500 8.05263e-005
1690 640937020.000000 430.212500 8.05263e-005
1691 640937100.000000 430.369000 8.05263e-005
1692 640937180.000000 430.522000 8.05561e-005
1693 640937260.000000 430.676500 8.06157e-005
1694 640937340.000000 430.833500 8.05859e-005
1695 640937420.000000 430.989500 8.04667e-005
1696 640937500.000000 431.147000 8.05859e-005
1697 640937580.000000 431.298500 8.05561e-005
1698 640937660.000000 431.452000 8.04667e-005
1699 640937740.000000 431.611500 8.05561e-005
1700 640937820.000000 431.767500 8.05263e-005
1701 640937900.000000 431.921500 8.05561e-005
1702 640937980.000000 432.075500 8.05859e-005
1703 640938060.000000 432.231500 8.04667e-005
1704 640938140.000000 432.390500 8.05859e-005
1705 640938220.000000 432.542000 8.05263e-005
1706 640938300.000000 432.696000 8.04965e-005
1707 640938380.000000 432.852500 8.05263e-005
1708 640938460.000000 433.007000 8.04667e-005
1709 640938540.000000 433.163500 8.04965e-005
1710 640938620.000000 433.320500 8.04667e-005
1711 640938700.000000 433.474500 8.05859e-005
1712 640938780.000000 433.629500 8.05263e-005
1713 640938860.000000 433.781000 8.04965e-005
1714 640938940.000000 433.939000 8.04667e-005
1715 640939020.000000 434.090500 8.04369e-005
1716 640939100.000000 434.246500 8.04369e-005
1717 640939180.000000 434.400500 8.04369e-005
1718 640939260.000000 434.555500 8.05263e-005
1719 640939340.000000 434.713000 8.04965e-005
1720 640939420.000000 434.867000 8.04071e-005
1721 640939500.000000 435.021500 8.04071e-005
1722 640939580.000000 435.176500 8.04071e-005
1723 640939660.000000 435.332500 8.04369e-005
1724 640939740.000000 435.486500 8.05263e-005
1725 640939820.000000 435.643000 8.05561e-005
1726 640939900.000000 435.795000 8.04369e-005
1727 640939980.000000 435.954500 8.03773e-005
1728 640940060.000000 436.109500 8.04071e-005
1729 640940140.000000 436.263500 8.04071e-005
1730 640940220.000000 436.421500 8.04369e-005
1731 640940300.000000 436.572500 8.04667e-005
1732 640940380.000000 436.730000 8.04369e-005
1733 640940460.000000 436.884500 8.04667e-005
1734 640940540.000000 437.039000 8.04071e-005
1735 640940620.000000 437.197000 8.03773e-005
1736 640940700.000000 437.349500 8.03773e-005
1737 640940780.000000 437.504500 8.04071e-005
1738 640940860.000000 437.662000 8.04369e-005
1739 640940940.000000 437.816500 8.03773e-005
1740 640941020.000000 437.970000 8.04369e-005
1741 640941100.000000 438.124000 8.03177e-005
1742 640941180.000000 438.282000 8.04369e-005
1743 640941260.000000 438.439500 8.04667e-005
1744 640941340.000000 438.589500 8.04071e-005
1745 640941420.000000 438.744500 8.04071e-005
1746 640941500.000000 438.900000 8.04071e-005
1747 640941580.000000 439.058000 8.04369e-005
1748 640941660.000000 439.210000 8.05263e-005
1749 640941740.000000 439.365000 8.03773e-005
1750 640941820.000000 439.522500 8.04369e-005
1751 640941900.000000 439.676000 8.03773e-005
1752 640941980.000000 439.829500 8.04071e-005
1753 640942060.000000 439.984500 8.04369e-005
1754 640942140.000000 440.135500 8.03177e-005
1755 640942220.000000 440.292500 8.04071e-005
1756 640942300.000000 440.445500 8.03177e-005
1757 640942380.000000 440.603000 8.04369e-005
1758 640942460.000000 440.756000 8.04369e-005
1759 640942540.000000 440.913000 8.04071e-005
1760 640942620.000000 441.069000 8.03773e-005
1761 640942700.000000 441.223500 8.03773e-005
1762 640942780.000000 441.379000 8.03773e-005
1763 640942860.000000 441.534500 8.03773e-005
1764 640942940.000000 441.689000 8.03773e-005
1765 640943020.000000 441.844000 8.03773e-005
1766 640943100.000000 442.001500 8.03475e-005
1767 640943180.000000 442.154000 8.03773e-005
1768 640943260.000000 442.313500 8.03773e-005
1769 640943340.000000 442.466000 8.03475e-005
1770 640943420.000000 442.622500 8.04369e-005
1771 640943500.000000 442.778000 8.04071e-005
1772 640943580.000000 442.931000 8.02879e-005
1773 640943660.000000 443.088500 8.03773e-005
1774 640943740.000000 443.242500 8.03773e-005
1775 640943820.000000 443.399000 8.04071e-005
1776 640943900.000000 443.554000 8.03773e-005
1777 640943980.000000 443.710500 8.04071e-005
1778 640944060.000000 443.865500 8.03177e-005
1779 640944140.000000 444.018500 8.03773e-005
1780 640944220.000000 444.171000 8.03177e-005
1781 640944300.000000 444.329000 8.03773e-005
1782 640944380.000000 444.483500 8.03177e-005
1783 640944460.000000 444.637500 8.03475e-005
1784 640944540.000000 444.790500 8.03773e-005
1785 640944620.000000 444.946000 8.04071e-005
1786 640944700.000000 445.104000 8.03773e-005
1787 640944780.000000 445.254500 8.03773e-005
1788 640944860.000000 445.409000 8.04071e-005
1789 640944940.000000 445.566500 8.03773e-005
1790 640945020.000000 445.723500 8.02879e-005
1791 640945100.000000 445.876500 8.03177e-005
1792 640945180.000000 446.030500 8.03177e-005
1793 640945260.000000 446.187500 8.03475e-005
1794 640945340.000000 446.345500 8.04071e-005
1795 640945420.000000 446.496500 8.03773e-005
1796 640945500.000000 446.651500 8.03475e-005
1797 640945580.000000 446.810000 8.02879e-005
1798 640945660.000000 446.961000 8.03177e-005
1799 640945740.000000 447.119500 8.04071e-005
1800 640945820.000000 447.275000 8.03475e-005
1801 640945900.000000 447.428500 8.04071e-005
1802 640945980.000000 447.586500 8.03773e-005
1803 640946060.000000 447.739000 8.03177e-005
1804 640946140.000000 447.895500 8.02879e-005
1805 640946220.000000 448.048000 8.02581e-005
1806 640946300.000000 448.205000 8.02879e-005
1807 640946380.000000 448.360000 8.03177e-005
1808 640946460.000000 448.515000 8.02879e-005
1809 640946540.000000 448.673000 8.02581e-005
1810 640946620.000000 448.826500 8.01687e-005
1811 640946700.000000 448.982000 8.01687e-005
1812 640946780.000000 449.136500 8.02283e-005
1813 640946860.000000 449.290500 8.03177e-005
1814 640946940.000000 449.447000 8.03177e-005
1815 640947020.000000 449.601000 8.02879e-005
1816 640947100.000000 449.756500 8.01985e-005
1817 640947180.000000 449.911000 8.01389e-005
1818 640947260.000000 450.064500 8.01985e-005
1819 640947340.000000 450.219500 8.02879e-005
1820 640947420.000000 450.376000 8.02879e-005
1821 640947500.000000 450.526500 8.03177e-005
1822 640947580.000000 450.684000 8.02283e-005
1823 640947660.000000 450.838000 8.01389e-005
1824 640947740.000000 450.997000 8.01091e-005
1825 640947820.000000 451.149500 8.02581e-005
1826 640947900.000000 451.305000 8.02581e-005
1827 640947980.000000 451.460000 8.02879e-005
1828 640948060.000000 451.615500 8.01985e-005
1829 640948140.000000 451.772500 8.01985e-005
1830 640948220.000000 451.925500 8.01091e-005
1831 640948300.000000 452.081000 8.02283e-005
1832 640948380.000000 452.236500 8.01687e-005
1833 640948460.000000 452.394000 8.01687e-005
1834 640948540.000000 452.544500 8.01687e-005
1835 640948620.000000 452.704500 8.01687e-005
1836 640948700.000000 452.860000 8.01389e-005
1837 640948780.000000 453.014000 8.00197e-005
1838 640948860.000000 453.166500 8.01091e-005
1839 640948940.000000 453.322000 8.01091e-005
1840 640949020.000000 453.477500 8.01389e-005
1841 640949100.000000 453.635000 8.01985e-005
1842 640949180.000000 453.790500 8.01687e-005
1843 640949260.000000 453.945000 8.00495e-005
1844 640949340.000000 454.097500 8.00197e-005
1845 640949420.000000 454.257000 8.00495e-005
1846 640949500.000000 454.408000 8.00197e-005
1847 640949580.000000 454.562000 8.00793e-005
1848 640949660.000000 454.715000 8.01985e-005
1849 640949740.000000 454.871500 8.00197e-005
1850 640949820.000000 455.027500 8.01687e-005
1851 640949900.000000 455.182500 8.01091e-005
1852 640949980.000000 455.335000 7.99601e-005
1853 640950060.000000 455.491500 7.99899e-005
1854 640950140.000000 455.646500 8.00495e-005
1855 640950220.000000 455.802000 8.00495e-005
1856 640950300.000000 455.959000 8.00197e-005
1857 640950380.000000 456.112500 8.00495e-005
1858 640950460.000000 456.270500 8.00495e-005
1859 640950540.000000 456.423500 8.00197e-005
1860 640950620.000000 456.581500 8.01091e-005
1861 640950700.000000 456.734500 8.00197e-005
1862 640950780.000000 456.889000 8.01389e-005
1863 640950860.000000 457.044500 8.01389e-005
1864 640950940.000000 457.203000 8.00197e-005
1865 640951020.000000 457.355000 8.00495e-005
1866 640951100.000000 457.513500 7.99899e-005
1867 640951180.000000 457.665000 7.99899e-005
1868 640951260.000000 457.824000 8.00495e-005
1869 640951340.000000 457.977000 8.00197e-005
1870 640951420.000000 458.130500 8.00197e-005
1871 640951500.000000 458.285500 7.99601e-005
1872 640951580.000000 458.442000 7.99601e-005
1873 640951660.000000 458.598500 7.99303e-005
1874 640951740.000000 458.755000 7.99303e-005
1875 640951820.000000 458.909500 7.99899e-005
1876 640951900.000000 459.064500 8.00197e-005
1877 640951980.000000 459.216500 7.99601e-005
1878 640952060.000000 459.374000 7.98707e-005
1879 640952140.000000 459.529500 7.99005e-005
1880 640952220.000000 459.680000 7.99005e-005
1881 640952300.000000 459.835500 7.99899e-005
1882 640952380.000000 459.989500 7.99899e-005
1883 640952460.000000 460.148000 7.98409e-005
1884 640952540.000000 460.300500 7.98409e-005
1885 640952620.000000 460.452000 7.98707e-005
1886 640952700.000000 460.608500 7.98409e-005
1887 640952780.000000 460.766000 7.99005e-005
1888 640952860.000000 460.922500 7.99303e-005
1889 640952940.000000 461.076000 7.98707e-005
1890 640953020.000000 461.228000 7.98707e-005
1891 640953100.000000 461.387500 7.98111e-005
1892 640953180.000000 461.540000 7.97813e-005
1893 640953260.000000 461.695500 7.98111e-005
1894 640953340.000000 461.852500 7.98707e-005
1895 640953420.000000 462.004500 7.99005e-005
1896 640953500.000000 462.163000 7.99005e-005
1897 640953580.000000 462.318000 7.97217e-005
1898 640953660.000000 462.471500 7.96621e-005
1899 640953740.000000 462.630500 7.97515e-005
1900 640953820.000000 462.782500 7.97515e-005
1901 640953900.000000 462.939500 7.98111e-005
1902 640953980.000000 463.094500 7.98409e-005
1903 640954060.000000 463.249000 7.97515e-005
1904 640954140.000000 463.404000 7.97515e-005
1905 640954220.000000 463.560000 7.96919e-005
1906 640954300.000000 463.712500 7.96919e-005
1907 640954380.000000 463.871500 7.97217e-005
1908 640954460.000000 464.024000 7.97217e-005
1909 640954540.000000 464.183500 7.97217e-005
1910 640954620.000000 464.337500 7.96919e-005
1911 640954700.000000 464.491000 7.96323e-005
1912 640954780.000000 464.648500 7.96621e-005
1913 640954860.000000 464.799500 7.96323e-005
1914 640954940.000000 464.957500 7.96919e-005
1915 640955020.000000 465.110000 7.96919e-005
1916 640955100.000000 465.264000 7.97217e-005
1917 640955180.000000 465.419000 7.96323e-005
1918 640955260.000000 465.574500 7.96025e-005
1919 640955340.000000 465.730000 7.96919e-005
1920 640955420.000000 465.884500 7.96025e-005
1921 640955500.000000 466.039500 7.97515e-005
1922 640955580.000000 466.196500 7.96919e-005
1923 640955660.000000 466.353500 7.96919e-005
1924 640955740.000000 466.506000 7.96621e-005
1925 640955820.000000 466.665000 7.96025e-005
1926 640955900.000000 466.816000 7.96919e-005
1927 640955980.000000 466.974500 7.96323e-005
1928 640956060.000000 467.127500 7.96025e-005
1929 640956140.000000 467.283000 7.97217e-005
1930 640956220.000000 467.442000 7.95429e-005
1931 640956300.000000 467.595000 7.96025e-005
1932 640956380.000000 467.749500 7.95131e-005
1933 640956460.000000 467.905000 7.95429e-005
1934 640956540.000000 468.057000 7.95131e-005
1935 640956620.000000 468.214000 7.95131e-005
1936 640956700.000000 468.368500 7.94833e-005
1937 640956780.000000 468.521500 7.95131e-005
1938 640956860.000000 468.680500 7.94833e-005
1939 640956940.000000 468.835500 7.94833e-005
1940 640957020.000000 468.990500 7.95429e-005
1941 640957100.000000 469.146500 7.95727e-005
1942 640957180.000000 469.300000 7.94535e-005
1943 640957260.000000 469.457000 7.94833e-005
1944 640957340.000000 469.608500 7.94535e-005
1945 640957420.000000 469.765000 7.94237e-005
1946 640957500.000000 469.917000 7.94237e-005
1947 640957580.000000 470.072000 7.93342e-005
1948 640957660.000000 470.228500 7.94535e-005
1949 640957740.000000 470.380500 7.94237e-005
1950 640957820.000000 470.537500 7.93939e-005
1951 640957900.000000 470.692000 7.94237e-005
1952 640957980.000000 470.847500 7.93939e-005
1953 640958060.000000 471.003000 7.93342e-005
1954 640958140.000000 471.158500 7.93342e-005
1955 640958220.000000 471.314000 7.94237e-005
1956 640958300.000000 471.470000 7.93939e-005
1957 640958380.000000 471.623000 7.93641e-005
1958 640958460.000000 471.781500 7.94237e-005
1959 640958540.000000 471.932500 7.94237e-005
1960 640958620.000000 472.091000 7.93641e-005
1961 640958700.000000 472.243500 7.93641e-005
1962 640958780.000000 472.399500 7.93939e-005
1963 640958860.000000 472.556500 7.93939e-005
1964 640958940.000000 472.711500 7.92448e-005
1965 640959020.000000 472.867500 7.93342e-005
1966 640959100.000000 473.022500 7.92746e-005
1967 640959180.000000 473.177500 7.93044e-005
1968 640959260.000000 473.332000 7.93044e-005
1969 640959340.000000 473.489500 7.92746e-005
1970 640959420.000000 473.642000 7.93044e-005
1971 640959500.000000 473.797000 7.92448e-005
1972 640959580.000000 473.952000 7.92448e-005
1973 640959660.000000 474.110000 7.91852e-005
1974 640959740.000000 474.263000 7.92448e-005
1975 640959820.000000 474.416500 7.92448e-005
1976 640959900.000000 474.573000 7.93342e-005
1977 640959980.000000 474.725500 7.93044e-005
1978 640960060.000000 474.882000 7.92746e-005
1979 640960140.000000 475.037500 7.92448e-005
1980 640960220.000000 475.189000 7.92448e-005
1981 640960300.000000 475.348000 7.92448e-005
1982 640960380.000000 475.502500 7.93044e-005
1983 640960460.000000 475.655000 7.92448e-005
1984 640960540.000000 475.808000 7.92746e-005
1985 640960620.000000 475.964000 7.92746e-005
1986 640960700.000000 476.119000 7.91256e-005
1987 640960780.000000 476.276000 7.91852e-005
1988 640960860.000000 476.432000 7.91554e-005
1989 640960940.000000 476.588000 7.91852e-005
1990 640961020.000000 476.745000 7.9215e-005
1991 640961100.000000 476.900000 7.9215e-005
1992 640961180.000000 477.056500 7.91256e-005
1993 640961260.000000 477.208000 7.9066e-005
1994 640961340.000000 477.366000 7.91256e-005
1995 640961420.000000 477.520000 7.9215e-005
1996 640961500.000000 477.675500 7.91852e-005
1997 640961580.000000 477.832500 7.92448e-005
1998 640961660.000000 477.985000 7.9066e-005
1999 640961740.000000 478.144000 7.90958e-005
2000 640961820.000000 478.298000 7.9066e-005
2001 640961900.000000 478.452500 7.90362e-005
2002 640961980.000000 478.607500 7.91554e-005
2003 640962060.000000 478.763500 7.91554e-005
2004 640962140.000000 478.917500 7.91256e-005
2005 640962220.000000 479.075500 7.90064e-005
2006 640962300.000000 479.226500 7.88872e-005
2007 640962380.000000 479.384000 7.89766e-005
2008 640962460.000000 479.536500 7.90064e-005
2009 640962540.000000 479.695500 7.91256e-005
2010 640962620.000000 479.847500 7.9066e-005
2011 640962700.000000 480.002000 7.91256e-005
2012 640962780.000000 480.158500 7.89766e-005
2013 640962860.000000 480.307000 7.88872e-005
2014 640962940.000000 480.464000 7.8917e-005
2015 640963020.000000 480.621000 7.90064e-005
2016 640963100.000000 480.774500 7.91256e-005
2017 640963180.000000 480.929000 7.90362e-005
2018 640963260.000000 481.083000 7.8917e-005
2019 640963340.000000 481.240500 7.88872e-005
2020 640963420.000000 481.398500 7.87978e-005
2021 640963500.000000 481.551000 7.88872e-005
2022 640963580.000000 481.707000 7.89766e-005
2023 640963660.000000 481.862000 7.90064e-005
2024 640963740.000000 482.015000 7.89766e-005
2025 640963820.000000 482.172500 7.8768e-005
2026 640963900.000000 482.326500 7.88574e-005
2027 640963980.000000 482.482000 7.88574e-005
2028 640964060.000000 482.640000 7.89766e-005
2029 640964140.000000 482.796500 7.8917e-005
2030 640964220.000000 482.950500 7.89468e-005
2031 640964300.000000 483.102500 7.88574e-005
2032 640964380.000000 483.260500 7.88276e-005
2033 640964460.000000 483.413500 7.8768e-005
2034 640964540.000000 483.567500 7.88574e-005
2035 640964620.000000 483.724500 7.89766e-005
2036 640964700.000000 483.878500 7.90064e-005
2037 640964780.000000 484.036500 7.88872e-005
2038 640964860.000000 484.190500 7.88276e-005
2039 640964940.000000 484.346000 7.87382e-005
2040 640965020.000000 484.501000 7.88276e-005
2041 640965100.000000 484.656500 7.89766e-005
2042 640965180.000000 484.809500 7.90064e-005
2043 640965260.000000 484.966500 7.89468e-005
2044 640965340.000000 485.118000 7.87382e-005
2045 640965420.000000 485.276500 7.86786e-005
2046 640965500.000000 485.430500 7.87382e-005
2047 640965580.000000 485.584000 7.88872e-005
2048 640965660.000000 485.741000 7.88574e-005
2049 640965740.000000 485.892000 7.88574e-005
2050 640965820.000000 486.048500 7.8768e-005
2051 640965900.000000 486.202500 7.86488e-005
2052 640965980.000000 486.359000 7.8619e-005
2053 640966060.000000 486.514500 7.86786e-005
2054 640966140.000000 486.672000 7.87978e-005
2055 640966220.000000 486.826500 7.88574e-005
2056 640966300.000000 486.986000 7.87382e-005
2057 640966380.000000 487.137000 7.86488e-005
2058 640966460.000000 487.296000 7.85892e-005
2059 640966540.000000 487.448500 7.8619e-005
2060 640966620.000000 487.605000 7.87084e-005
2061 640966700.000000 487.758500 7.87382e-005
2062 640966780.000000 487.914000 7.87382e-005
2063 640966860.000000 488.068500 7.86786e-005
2064 640966940.000000 488.225000 7.84998e-005
2065 640967020.000000 488.375500 7.85892e-005
2066 640967100.000000 488.537000 7.86488e-005
2067 640967180.000000 488.692500 7.86786e-005
2068 640967260.000000 488.846500 7.85892e-005
2069 640967340.000000 489.001000 7.86786e-005
2070 640967420.000000 489.154000 7.85594e-005
2071 640967500.000000 489.309000 7.84402e-005
2072 640967580.000000 489.466500 7.84998e-005
2073 640967660.000000 489.620000 7.85296e-005
2074 640967740.000000 489.774500 7.84998e-005
2075 640967820.000000 489.925000 7.85892e-005
2076 640967900.000000 490.085500 7.84998e-005
2077 640967980.000000 490.239000 7.84998e-005
2078 640968060.000000 490.394000 7.85594e-005
2079 640968140.000000 490.548500 7.84402e-005
2080 640968220.000000 490.702500 7.847e-005
2081 640968300.000000 490.857000 7.847e-005
2082 640968380.000000 491.013500 7.847e-005
2083 640968460.000000 491.165500 7.847e-005
2084 640968540.000000 491.322000 7.84402e-005
2085 640968620.000000 491.475500 7.84998e-005
2086 640968700.000000 491.636000 7.83508e-005
2087 640968780.000000 491.790500 7.84104e-005
2088 640968860.000000 491.947000 7.83508e-005
2089 640968940.000000 492.104500 7.82912e-005
2090 640969020.000000 492.256000 7.847e-005
2091 640969100.000000 492.414000 7.84104e-005
2092 640969181.000000 492.567500 7.847e-005
2093 640969260.000000 492.723000 7.83508e-005
2094 640969340.000000 492.880500 7.8321e-005
2095 640969420.000000 493.033000 7.847e-005
2096 640969500.000000 493.190000 7.84402e-005
2097 640969580.000000 493.343500 7.84998e-005
2098 640969660.000000 493.498500 7.84402e-005
2099 640969740.000000 493.653000 7.83806e-005
2100 640969820.000000 493.809000 7.82912e-005
2101 640969900.000000 493.962500 7.82912e-005
2102 640969980.000000 494.120000 7.8321e-005
2103 640970060.000000 494.275500 7.83508e-005
2104 640970140.000000 494.430500 7.83508e-005
2105 640970220.000000 494.586500 7.82614e-005
2106 640970300.000000 494.739500 7.82018e-005
2107 640970380.000000 494.896500 7.82018e-005
2108 640970460.000000 495.046500 7.82316e-005
2109 640970540.000000 495.201000 7.8321e-005
2110 640970620.000000 495.358000 7.8321e-005
2111 640970700.000000 495.515000 7.82614e-005
2112 640970780.000000 495.666500 7.8172e-005
2113 640970860.000000 495.823000 7.80229e-005
2114 640970940.000000 495.977000 7.8172e-005
2115 640971020.000000 496.134000 7.82018e-005
2116 640971100.000000 496.284500 7.82614e-005
2117 640971180.000000 496.441500 7.82614e-005
2118 640971260.000000 496.596500 7.81422e-005
2119 640971340.000000 496.754000 7.81124e-005
2120 640971420.000000 496.910000 7.80229e-005
2121 640971500.000000 497.064000 7.81124e-005
2122 640971580.000000 497.219500 7.82614e-005
2123 640971660.000000 497.377000 7.82018e-005
2124 640971740.000000 497.532000 7.82018e-005
2125 640971820.000000 497.687500 7.80229e-005
2126 640971900.000000 497.843500 7.79931e-005
2127 640971980.000000 497.998000 7.80527e-005
2128 640972060.000000 498.155000 7.81422e-005
2129 640972140.000000 498.306000 7.8172e-005
2130 640972220.000000 498.465500 7.80527e-005
2131 640972300.000000 498.618500 7.80527e-005
2132 640972380.000000 498.774000 7.79335e-005
2133 640972460.000000 498.927500 7.78739e-005
2134 640972540.000000 499.084000 7.80826e-005
2135 640972620.000000 499.240500 7.80527e-005
2136 640972700.000000 499.391500 7.8172e-005
2137 640972780.000000 499.546500 7.80826e-005
2138 640972860.000000 499.705000 7.79335e-005
2139 640972940.000000 499.855500 7.79037e-005
2140 640973020.000000 500.014500 7.79335e-005
2141 640973100.000000 500.169500 7.80229e-005
2142 640973180.000000 500.320500 7.81124e-005
2143 640973260.000000 500.480500 7.80527e-005
2144 640973340.000000 500.632000 7.78441e-005
2145 640973420.000000 500.790500 7.77845e-005
2146 640973500.000000 500.944500 7.77845e-005
2147 640973580.000000 501.095500 7.79931e-005
2148 640973660.000000 501.249000 7.80229e-005
2149 640973740.000000 501.405000 7.79633e-005
2150 640973820.000000 501.562500 7.79037e-005
2151 640973900.000000 501.717000 7.79335e-005
2152 640973980.000000 501.873000 7.78143e-005
2153 640974060.000000 502.029500 7.78739e-005
2154 640974140.000000 502.188000 7.79037e-005
2155 640974220.000000 502.340500 7.80527e-005
2156 640974300.000000 502.495000 7.79633e-005
2157 640974380.000000 502.648500 7.78441e-005
2158 640974460.000000 502.808500 7.78441e-005
2159 640974540.000000 502.960000 7.78143e-005
2160 640974620.000000 503.117500 7.78739e-005
2161 640974700.000000 503.271000 7.79931e-005
2162 640974780.000000 503.427000 7.79633e-005
2163 640974860.000000 503.581500 7.79037e-005
2164 640974940.000000 503.736000 7.78441e-005
2165 640975020.000000 503.890000 7.78441e-005
2166 640975100.000000 504.047000 7.78441e-005
2167 640975180.000000 504.201000 7.78739e-005
2168 640975260.000000 504.357000 7.78739e-005
2169 640975340.000000 504.511500 7.78441e-005
2170 640975420.000000 504.668000 7.78143e-005
2171 640975500.000000 504.822500 7.78441e-005
2172 640975580.000000 504.976500 7.77845e-005
2173 640975660.000000 505.130000 7.78441e-005
2174 640975740.000000 505.287000 7.78441e-005
2175 640975820.000000 505.438500 7.78441e-005
2176 640975900.000000 505.596000 7.78739e-005
2177 640975980.000000 505.749000 7.77547e-005
2178 640976060.000000 505.905500 7.77547e-005
2179 640976140.000000 506.060000 7.76951e-005
2180 640976220.000000 506.215000 7.77845e-005
2181 640976300.000000 506.369000 7.78143e-005
2182 640976380.000000 506.526000 7.78441e-005
2183 640976460.000000 506.679000 7.77547e-005
2184 640976540.000000 506.837500 7.77249e-005
2185 640976620.000000 506.992000 7.78441e-005
2186 640976700.000000 507.148000 7.77547e-005
2187 640976780.000000 507.302000 7.76951e-005
2188 640976860.000000 507.459000 7.77845e-005
2189 640976940.000000 507.615500 7.77547e-005
2190 640977020.000000 507.770000 7.77845e-005
2191 640977100.000000 507.924000 7.77845e-005
2192 640977180.000000 508.082000 7.77845e-005
2193 640977260.000000 508.238000 7.77249e-005
2194 640977340.000000 508.393000 7.78143e-005
2195 640977420.000000 508.548500 7.77845e-005
2196 640977500.000000 508.701000 7.77249e-005
2197 640977580.000000 508.860000 7.77547e-005
2198 640977660.000000 509.010000 7.77249e-005
2199 640977740.000000 509.167000 7.76951e-005
2200 640977820.000000 509.321500 7.77249e-005
2201 640977900.000000 509.478000 7.77547e-005
2202 640977980.000000 509.631000 7.78143e-005
2203 640978060.000000 509.788000 7.77845e-005
2204 640978140.000000 509.942000 7.76951e-005
2205 640978220.000000 510.097500 7.75759e-005
2206 640978300.000000 510.245000 7.75759e-005
2207 640978380.000000 510.403000 7.77249e-005
2208 640978460.000000 510.556000 7.77547e-005
2209 640978540.000000 510.714000 7.78441e-005
2210 640978620.000000 510.869000 7.78143e-005
2211 640978700.000000 511.022500 7.76951e-005
2212 640978780.000000 511.179000 7.77249e-005
2213 640978860.000000 511.335500 7.76057e-005
2214 640978940.000000 511.486500 7.78441e-005
2215 640979020.000000 511.642500 7.77845e-005
2216 640979100.000000 511.796500 7.77845e-005
2217 640979180.000000 511.956500 7.77845e-005
2218 640979260.000000 512.110000 7.76951e-005
2219 640979340.000000 512.265000 7.76355e-005
2220 640979420.000000 512.421000 7.77547e-005
2221 640979500.000000 512.578500 7.77845e-005
2222 640979580.000000 512.733500 7.77845e-005
2223 640979660.000000 512.890000 7.77249e-005
2224 640979740.000000 513.042500 7.76057e-005
2225 640979820.000000 513.198000 7.76355e-005
2226 640979900.000000 513.354000 7.76951e-005
2227 640979980.000000 513.509500 7.77845e-005
2228 640980060.000000 513.665500 7.77547e-005
2229 640980140.000000 513.817000 7.77547e-005
2230 640980220.000000 513.975000 7.76057e-005
2231 640980300.000000 514.127500 7.76951e-005
2232 640980380.000000 514.284500 7.76653e-005
2233 640980460.000000 514.440500 7.77249e-005
2234 640980540.000000 514.592500 7.77547e-005
2235 640980620.000000 514.752000 7.76653e-005
2236 640980700.000000 514.903500 7.76355e-005
2237 640980781.000000 515.059000 7.75461e-005
2238 640980860.000000 515.212500 7.75759e-005
2239 640980940.000000 515.369000 7.76057e-005
2240 640981020.000000 515.524500 7.77249e-005
2241 640981100.000000 515.678500 7.77845e-005
2242 640981180.000000 515.831000 7.76653e-005
2243 640981260.000000 515.988500 7.75759e-005
2244 640981340.000000 516.143500 7.76057e-005
2245 640981420.000000 516.298000 7.75461e-005
2246 640981500.000000 516.454000 7.77249e-005
2247 640981580.000000 516.606000 7.77249e-005
2248 640981660.000000 516.764500 7.76951e-005
2249 640981740.000000 516.915000 7.76057e-005
2250 640981820.000000 517.070000 7.75163e-005
2251 640981900.000000 517.227000 7.76057e-005
2252 640981980.000000 517.383500 7.76355e-005
2253 640982060.000000 517.539000 7.76951e-005
2254 640982140.000000 517.694000 7.77249e-005
2255 640982220.000000 517.849000 7.76355e-005
2256 640982300.000000 518.006000 7.76057e-005
2257 640982380.000000 518.159500 7.75759e-005
2258 640982460.000000 518.318000 7.76951e-005
2259 640982540.000000 518.476000 7.77249e-005
2260 640982620.000000 518.631000 7.76355e-005
2261 640982700.000000 518.784000 7.76951e-005
2262 640982780.000000 518.937000 7.76057e-005
2263 640982860.000000 519.092500 7.75163e-005
2264 640982940.000000 519.247000 7.75163e-005
2265 640983020.000000 519.402000 7.74865e-005
2266 640983100.000000 519.556500 7.76355e-005
2267 640983180.000000 519.712500 7.75759e-005
2268 640983260.000000 519.868000 7.75759e-005
2269 640983340.000000 520.023000 7.75759e-005
2270 640983420.000000 520.177000 7.76355e-005
2271 640983500.000000 520.332000 7.76951e-005
2272 640983580.000000 520.487500 7.77249e-005
2273 640983660.000000 520.638500 7.77249e-005
2274 640983740.000000 520.796000 7.76057e-005
2275 640983820.000000 520.949000 7.75759e-005
2276 640983900.000000 521.104000 7.76355e-005
2277 640983980.000000 521.261000 7.75163e-005
2278 640984060.000000 521.413000 7.76355e-005
2279 640984140.000000 521.571000 7.76057e-005
2280 640984220.000000 521.723000 7.76057e-005
2281 640984300.000000 521.880500 7.75461e-005
2282 640984380.000000 522.035000 7.76355e-005
2283 640984460.000000 522.191000 7.75461e-005
2284 640984540.000000 522.360000 7.76355e-005
2285 640984620.000000 522.505500 7.76951e-005
2286 640984700.000000 522.660000 7.75759e-005
2287 640984780.000000 522.815500 7.75759e-005
2288 640984860.000000 522.968000 7.75461e-005
2289 640984940.000000 523.126000 7.75163e-005
2290 640985020.000000 523.281500 7.76057e-005
2291 640985100.000000 523.437000 7.76057e-005
2292 640985180.000000 523.591000 7.76355e-005
2293 640985260.000000 523.743000 7.76057e-005
2294 640985340.000000 523.902500 7.75759e-005
2295 640985420.000000 524.058000 7.74865e-005
2296 640985500.000000 524.208500 7.75759e-005
2297 640985580.000000 524.362500 7.76057e-005
2298 640985660.000000 524.518500 7.76355e-005
2299 640985740.000000 524.676500 7.76355e-005
2300 640985820.000000 524.828500 7.75759e-005
2301 640985900.000000 524.982500 7.75163e-005
2302 640985980.000000 525.137000 7.76653e-005
2303 640986060.000000 525.290500 7.75163e-005
2304 640986140.000000 525.446500 7.76057e-005
2305 640986220.000000 525.599000 7.76057e-005
2306 640986300.000000 525.754500 7.75163e-005
2307 640986380.000000 525.912500 7.75461e-005
2308 640986460.000000 526.066500 7.73971e-005
2309 640986540.000000 526.220500 7.75163e-005
2310 640986620.000000 526.377000 7.76355e-005
2311 640986700.000000 526.528500 7.76653e-005
2312 640986780.000000 526.685000 7.76355e-005
2313 640986860.000000 526.842500 7.75163e-005
2314 640986940.000000 526.994000 7.75163e-005
2315 640987020.000000 527.152000 7.75163e-005
2316 640987100.000000 527.307500 7.75759e-005
2317 640987180.000000 527.466000 7.76653e-005
2318 640987260.000000 527.618000 7.76057e-005
2319 640987340.000000 527.774000 7.75163e-005
2320 640987420.000000 527.931000 7.74865e-005
2321 640987500.000000 528.085000 7.75461e-005
2322 640987580.000000 528.240000 7.75759e-005
2323 640987660.000000 528.396500 7.76057e-005
2324 640987740.000000 528.551500 7.74865e-005
2325 640987820.000000 528.709500 7.74865e-005
2326 640987900.000000 528.862000 7.74865e-005
2327 640987980.000000 529.018000 7.74865e-005
2328 640988060.000000 529.175000 7.75461e-005
2329 640988140.000000 529.324500 7.75759e-005
2330 640988220.000000 529.482000 7.76057e-005
2331 640988300.000000 529.639000 7.76057e-005
2332 640988380.000000 529.793000 7.76057e-005
2333 640988460.000000 529.947500 7.75461e-005
2334 640988540.000000 530.102000 7.76057e-005
2335 640988620.000000 530.258000 7.74865e-005
2336 640988700.000000 530.411500 7.75759e-005
2337 640988780.000000 530.566000 7.76057e-005
2338 640988860.000000 530.724000 7.76057e-005
2339 640988940.000000 530.876000 7.75461e-005
2340 640989020.000000 531.028500 7.75163e-005
2341 640989100.000000 531.186000 7.76057e-005
2342 640989180.000000 531.338500 7.75461e-005
2343 640989260.000000 531.493000 7.75759e-005
2344 640989340.000000 531.646000 7.76057e-005
2345 640989420.000000 531.802000 7.74865e-005
2346 640989500.000000 531.960000 7.74865e-005
2347 640989580.000000 532.112500 7.74865e-005
2348 640989660.000000 532.269000 7.75461e-005
2349 640989740.000000 532.425500 7.75461e-005
2350 640989820.000000 532.582500 7.74865e-005
2351 640989900.000000 532.736500 7.75759e-005
2352 640989980.000000 532.889500 7.74865e-005
2353 640990060.000000 533.048000 7.76057e-005
2354 640990140.000000 533.200000 7.75163e-005
2355 640990220.000000 533.357000 7.75163e-005
2356 640990300.000000 533.515500 7.75461e-005
2357 640990380.000000 533.670500 7.75163e-005
2358 640990460.000000 533.824500 7.75759e-005
2359 640990540.000000 533.980000 7.75759e-005
2360 640990620.000000 534.135000 7.75759e-005
2361 640990700.000000 534.288500 7.75163e-005
2362 640990780.000000 534.443000 7.75163e-005
2363 640990860.000000 534.599000 7.75759e-005
2364 640990940.000000 534.754000 7.75461e-005
2365 640991020.000000 534.904500 7.75759e-005
2366 640991100.000000 535.063000 7.75461e-005
2367 640991180.000000 535.219000 7.74567e-005
2368 640991260.000000 535.374500 7.75759e-005
2369 640991340.000000 535.526000 7.75759e-005
2370 640991420.000000 535.680500 7.75759e-005
2371 640991500.000000 535.837000 7.75461e-005
2372 640991580.000000 535.989000 7.75163e-005
2373 640991660.000000 536.143500 7.75461e-005
2374 640991740.000000 536.300500 7.75163e-005
2375 640991820.000000 536.454500 7.76355e-005
2376 640991900.000000 536.608500 7.75759e-005
2377 640991980.000000 536.764000 7.74865e-005
2378 640992060.000000 536.919000 7.75759e-005
2379 640992140.000000 537.073000 7.74567e-005
2380 640992220.000000 537.230500 7.75461e-005
2381 640992300.000000 537.388500 7.75759e-005
2382 640992380.000000 537.542000 7.75759e-005
2383 640992460.000000 537.698500 7.75461e-005
2384 640992540.000000 537.857500 7.75163e-005
2385 640992620.000000 538.007000 7.75163e-005
2386 640992700.000000 538.164500 7.76057e-005
2387 640992780.000000 538.320000 7.75461e-005
2388 640992860.000000 538.470500 7.75759e-005
2389 640992940.000000 538.630000 7.76057e-005
2390 640993020.000000 538.783500 7.75759e-005
2391 640993100.000000 538.938500 7.76653e-005
2392 640993180.000000 539.096500 7.75461e-005
2393 640993260.000000 539.252000 7.76057e-005
2394 640993340.000000 539.406000 7.75759e-005
2395 640993420.000000 539.562000 7.75163e-005
2396 640993500.000000 539.713000 7.75163e-005
2397 640993580.000000 539.872000 7.75759e-005
2398 640993660.000000 540.026000 7.75461e-005
2399 640993740.000000 540.179000 7.75759e-005
2400 640993820.000000 540.336000 7.76057e-005
2401 640993900.000000 540.489000 7.74865e-005
2402 640993980.000000 540.645500 7.75461e-005
2403 640994060.000000 540.797000 7.76057e-005
2404 640994140.000000 540.953000 7.75461e-005
2405 640994220.000000 541.111000 7.76355e-005
2406 640994300.000000 541.263500 7.75163e-005
2407 640994380.000000 541.418000 7.75759e-005
2408 640994460.000000 541.574000 7.75461e-005
2409 640994540.000000 541.724000 7.74865e-005
2410 640994620.000000 541.881500 7.75163e-005
2411 640994700.000000 542.036500 7.75163e-005
2412 640994780.000000 542.193500 7.75461e-005
2413 640994860.000000 542.347000 7.75163e-005
2414 640994940.000000 542.503500 7.75461e-005
2415 640995020.000000 542.661500 7.76057e-005
2416 640995100.000000 542.812500 7.75461e-005
2417 640995180.000000 542.971000 7.75759e-005
2418 640995260.000000 543.126500 7.74567e-005
2419 640995340.000000 543.280500 7.75461e-005
2420 640995420.000000 543.436000 7.75759e-005
2421 640995500.000000 543.592000 7.76057e-005
2422 640995580.000000 543.749500 7.74865e-005
2423 640995660.000000 543.903500 7.74567e-005
2424 640995740.000000 544.059000 7.75163e-005
2425 640995820.000000 544.217000 7.75163e-005
2426 640995900.000000 544.367500 7.74567e-005
2427 640995980.000000 544.523000 7.76057e-005
2428 640996060.000000 544.682000 7.75163e-005
2429 640996140.000000 544.832500 7.75461e-005
2430 640996220.000000 544.989000 7.74865e-005
2431 640996300.000000 545.145500 7.75163e-005
2432 640996380.000000 545.296500 7.75759e-005
2433 640996460.000000 545.452000 7.75163e-005
2434 640996540.000000 545.603500 7.74567e-005
2435 640996620.000000 545.761500 7.74269e-005
2436 640996700.000000 545.917500 7.74865e-005
2437 640996780.000000 546.068500 7.74865e-005
2438 640996860.000000 546.223500 7.73971e-005
2439 640996940.000000 546.379500 7.74269e-005
2440 640997020.000000 546.535000 7.73673e-005
2441 640997100.000000 546.688000 7.74567e-005
2442 640997180.000000 546.842000 7.74269e-005
2443 640997260.000000 546.995500 7.73673e-005
2444 640997340.000000 547.153000 7.73673e-005
2445 640997420.000000 547.309000 7.74269e-005
2446 640997500.000000 547.463000 7.74269e-005
2447 640997580.000000 547.619500 7.73971e-005
2448 640997660.000000 547.779000 7.74269e-005
2449 640997740.000000 547.934500 7.74567e-005
2450 640997820.000000 548.088500 7.73673e-005
2451 640997900.000000 548.244500 7.73971e-005
2452 640997980.000000 548.399000 7.74269e-005
2453 640998060.000000 548.554000 7.73673e-005
2454 640998140.000000 548.710000 7.75163e-005
2455 640998220.000000 548.864500 7.73673e-005
2456 640998300.000000 549.019500 7.73971e-005
2457 640998380.000000 549.176000 7.73673e-005
2458 640998460.000000 549.334000 7.73673e-005
2459 640998540.000000 549.490000 7.73971e-005
2460 640998620.000000 549.640500 7.74269e-005
2461 640998700.000000 549.798000 7.74269e-005
2462 640998780.000000 549.955000 7.73673e-005
2463 640998860.000000 550.107000 7.73673e-005
2464 640998940.000000 550.264000 7.73673e-005
2465 640999020.000000 550.418500 7.72779e-005
2466 640999100.000000 550.572000 7.73375e-005
2467 640999180.000000 550.727500 7.73375e-005
2468 640999260.000000 550.881000 7.73673e-005
2469 640999340.000000 551.037500 7.73077e-005
2470 640999420.000000 551.189000 7.72779e-005
2471 640999500.000000 551.346500 7.73077e-005
2472 640999580.000000 551.503000 7.72481e-005
2473 640999660.000000 551.653000 7.73077e-005
2474 640999740.000000 551.810500 7.73375e-005
2475 640999820.000000 551.965000 7.73077e-005
2476 640999900.000000 552.117000 7.72779e-005
2477 640999980.000000 552.274000 7.72779e-005
2478 641000060.000000 552.429500 7.72779e-005
2479 641000140.000000 552.584000 7.71885e-005
2480 641000220.000000 552.739500 7.72779e-005
2481 641000300.000000 552.894000 7.73375e-005
2482 641000380.000000 553.053000 7.72183e-005
2483 641000460.000000 553.207000 7.72481e-005
2484 641000540.000000 553.363000 7.71885e-005
2485 641000620.000000 553.516000 7.72183e-005
2486 641000700.000000 553.673000 7.70991e-005
2487 641000780.000000 553.830000 7.71885e-005
2488 641000860.000000 553.982000 7.72183e-005
2489 641000940.000000 554.140000 7.71587e-005
2490 641001020.000000 554.293500 7.72183e-005
2491 641001100.000000 554.449500 7.71885e-005
2492 641001180.000000 554.606000 7.72779e-005
2493 641001260.000000 554.756500 7.71885e-005
2494 641001340.000000 554.914000 7.70991e-005
2495 641001420.000000 555.071500 7.71885e-005
2496 641001500.000000 555.226000 7.70693e-005
2497 641001580.000000 555.380000 7.70991e-005
2498 641001660.000000 555.535000 7.71885e-005
2499 641001740.000000 555.687500 7.70991e-005
2500 641001820.000000 555.843500 7.71587e-005
2501 641001900.000000 555.998500 7.70395e-005
2502 641001980.000000 556.152500 7.70693e-005
2503 641002060.000000 556.307500 7.70991e-005
2504 641002140.000000 556.462500 7.70693e-005
2505 641002220.000000 556.615000 7.70395e-005
2506 641002300.000000 556.769000 7.70395e-005
2507 641002380.000000 556.926500 7.71587e-005
2508 641002460.000000 557.079500 7.70395e-005
2509 641002540.000000 557.234000 7.70395e-005
2510 641002620.000000 557.391500 7.70395e-005
2511 641002700.000000 557.544000 7.70693e-005
2512 641002780.000000 557.703500 7.70097e-005
2513 641002860.000000 557.861500 7.70395e-005
2514 641002940.000000 558.018000 7.70693e-005
2515 641003020.000000 558.173000 7.70097e-005
2516 641003100.000000 558.327000 7.70097e-005
2517 641003180.000000 558.484500 7.70395e-005
2518 641003260.000000 558.637000 7.69501e-005
2519 641003340.000000 558.792000 7.70097e-005
2520 641003420.000000 558.949500 7.70395e-005
2521 641003500.000000 559.102500 7.69203e-005
2522 641003580.000000 559.260000 7.69501e-005
2523 641003660.000000 559.417500 7.69203e-005
2524 641003740.000000 559.569500 7.69799e-005
2525 641003820.000000 559.726500 7.69203e-005
2526 641003900.000000 559.883500 7.69203e-005
2527 641003980.000000 560.035000 7.69501e-005
2528 641004060.000000 560.188500 7.68607e-005
2529 641004140.000000 560.344000 7.68905e-005
2530 641004220.000000 560.501500 7.68905e-005
2531 641004300.000000 560.656000 7.68607e-005
2532 641004380.000000 560.807500 7.68607e-005
2533 641004460.000000 560.964500 7.68607e-005
2534 641004540.000000 561.120000 7.68011e-005
2535 641004620.000000 561.273000 7.67712e-005
2536 641004700.000000 561.428000 7.68011e-005
2537 641004780.000000 561.582000 7.67712e-005
2538 641004860.000000 561.736500 7.67116e-005
2539 641004940.000000 561.891500 7.68011e-005
2540 641005020.000000 562.046000 7.67414e-005
2541 641005100.000000 562.199500 7.67116e-005
2542 641005180.000000 562.354000 7.67414e-005
2543 641005260.000000 562.511000 7.67116e-005
2544 641005340.000000 562.668000 7.67414e-005
2545 641005420.000000 562.821000 7.67116e-005
2546 641005500.000000 562.980000 7.67414e-005
2547 641005580.000000 563.136000 7.67712e-005
2548 641005660.000000 563.291500 7.67116e-005
2549 641005740.000000 563.448000 7.67116e-005
2550 641005820.000000 563.604000 7.66222e-005
2551 641005900.000000 563.758500 7.6652e-005
2552 641005980.000000 563.913000 7.67116e-005
2553 641006060.000000 564.071000 7.67116e-005
2554 641006140.000000 564.223000 7.66818e-005
2555 641006220.000000 564.378000 7.6652e-005
2556 641006300.000000 564.537000 7.66818e-005
2557 641006380.000000 564.691500 7.66222e-005
2558 641006460.000000 564.845500 7.65328e-005
2559 641006540.000000 565.002500 7.66222e-005
2560 641006620.000000 565.157500 7.65626e-005
2561 641006700.000000 565.311500 7.65626e-005
2562 641006780.000000 565.467500 7.65626e-005
2563 641006860.000000 565.623500 7.65328e-005
2564 641006940.000000 565.776500 7.65626e-005
2565 641007020.000000 565.929500 7.64434e-005
2566 641007100.000000 566.086000 7.65626e-005
2567 641007180.000000 566.240000 7.64434e-005
2568 641007260.000000 566.393000 7.65328e-005
2569 641007340.000000 566.550500 7.64732e-005
2570 641007420.000000 566.705000 7.64434e-005
2571 641007500.000000 566.857500 7.64434e-005
2572 641007580.000000 567.013000 7.62944e-005
2573 641007660.000000 567.167500 7.64136e-005
2574 641007740.000000 567.324000 7.6354e-005
2575 641007820.000000 567.473500 7.64136e-005
2576 641007900.000000 567.630500 7.64136e-005
2577 641007980.000000 567.789000 7.63838e-005
2578 641008060.000000 567.943000 7.63838e-005
2579 641008140.000000 568.098500 7.63242e-005
2580 641008220.000000 568.256500 7.6354e-005
2581 641008300.000000 568.414000 7.64434e-005
2582 641008380.000000 568.567500 7.62944e-005
2583 641008460.000000 568.721500 7.63838e-005
2584 641008540.000000 568.881000 7.62348e-005
2585 641008620.000000 569.032500 7.62944e-005
2586 641008700.000000 569.188500 7.63242e-005
2587 641008780.000000 569.346000 7.63242e-005
2588 641008860.000000 569.497500 7.63242e-005
2589 641008940.000000 569.656500 7.6205e-005
2590 641009020.000000 569.813000 7.62348e-005
2591 641009100.000000 569.966000 7.6205e-005
2592 641009180.000000 570.120500 7.62348e-005
2593 641009260.000000 570.277000 7.62348e-005
2594 641009340.000000 570.433500 7.6205e-005
2595 641009420.000000 570.586500 7.62348e-005
2596 641009500.000000 570.742000 7.62348e-005
2597 641009580.000000 570.900000 7.6205e-005
2598 641009660.000000 571.053500 7.6205e-005
2599 641009740.000000 571.206000 7.61454e-005
2600 641009820.000000 571.363000 7.60858e-005
2601 641009900.000000 571.516500 7.6205e-005
2602 641009980.000000 571.670000 7.61752e-005
2603 641010060.000000 571.825500 7.61752e-005
2604 641010140.000000 571.980000 7.6056e-005
2605 641010220.000000 572.134500 7.60262e-005
2606 641010300.000000 572.288500 7.59666e-005
2607 641010380.000000 572.444500 7.6056e-005
2608 641010460.000000 572.598000 7.60858e-005
2609 641010540.000000 572.753000 7.6056e-005
2610 641010620.000000 572.911000 7.6056e-005
2611 641010700.000000 573.064500 7.60262e-005
2612 641010780.000000 573.224000 7.6056e-005
2613 641010860.000000 573.382000 7.60262e-005
2614 641010940.000000 573.533000 7.59666e-005
2615 641011020.000000 573.692000 7.6056e-005
2616 641011100.000000 573.847000 7.59368e-005
2617 641011180.000000 573.999500 7.59666e-005
2618 641011260.000000 574.157000 7.59368e-005
2619 641011340.000000 574.310500 7.59666e-005
2620 641011420.000000 574.466500 7.59666e-005
2621 641011500.000000 574.622500 7.59666e-005
2622 641011580.000000 574.778000 7.59368e-005
2623 641011660.000000 574.932500 7.58772e-005
2624 641011740.000000 575.087000 7.59666e-005
2625 641011820.000000 575.242500 7.59666e-005
2626 641011900.000000 575.398500 7.58772e-005
2627 641011980.000000 575.550500 7.59368e-005
2628 641012060.000000 575.707500 7.58772e-005
2629 641012140.000000 575.861500 7.58772e-005
2630 641012220.000000 576.017000 7.5907e-005
2631 641012300.000000 576.170500 7.58772e-005
2632 641012380.000000 576.325000 7.59368e-005
2633 641012460.000000 576.480000 7.58772e-005
2634 641012540.000000 576.631500 7.58474e-005
2635 641012620.000000 576.788000 7.58176e-005
2636 641012700.000000 576.945000 7.5758e-005
2637 641012780.000000 577.094000 7.58176e-005
2638 641012860.000000 577.253000 7.5758e-005
2639 641012940.000000 577.408000 7.5758e-005
2640 641013020.000000 577.558500 7.57878e-005
2641 641013100.000000 577.716500 7.58176e-005
2642 641013180.000000 577.873000 7.5758e-005
2643 641013260.000000 578.031000 7.56388e-005
2644 641013340.000000 578.184500 7.57282e-005
2645 641013420.000000 578.341000 7.5758e-005
2646 641013500.000000 578.499500 7.56686e-005
2647 641013580.000000 578.650500 7.5758e-005
2648 641013660.000000 578.808500 7.57282e-005
2649 641013740.000000 578.964500 7.57282e-005
2650 641013820.000000 579.117500 7.57282e-005
2651 641013900.000000 579.277000 7.56388e-005
2652 641013980.000000 579.432000 7.56686e-005
2653 641014060.000000 579.587500 7.56686e-005
2654 641014140.000000 579.741000 7.56388e-005
2655 641014220.000000 579.896500 7.56388e-005
2656 641014300.000000 580.054000 7.56388e-005
2657 641014380.000000 580.205500 7.5609e-005
2658 641014460.000000 580.362500 7.56686e-005
2659 641014540.000000 580.520000 7.5609e-005
2660 641014620.000000 580.671500 7.56686e-005
2661 641014700.000000 580.829500 7.5609e-005
2662 641014780.000000 580.985500 7.5609e-005
2663 641014860.000000 581.138500 7.5609e-005
2664 641014940.000000 581.295500 7.55494e-005
2665 641015020.000000 581.448000 7.55196e-005
2666 641015100.000000 581.602500 7.55494e-005
2667 641015180.000000 581.757500 7.55196e-005
2668 641015260.000000 581.911500 7.55196e-005
2669 641015340.000000 582.064000 7.54897e-005
2670 641015420.000000 582.218500 7.55196e-005
2671 641015500.000000 582.375000 7.55494e-005
2672 641015580.000000 582.528000 7.54599e-005
2673 641015660.000000 582.680500 7.55196e-005
2674 641015740.000000 582.836000 7.5609e-005
2675 641015820.000000 582.992500 7.54897e-005
2676 641015900.000000 583.148500 7.55196e-005
2677 641015980.000000 583.304000 7.54003e-005
2678 641016060.000000 583.459000 7.54599e-005
2679 641016140.000000 583.618500 7.54003e-005
2680 641016220.000000 583.773500 7.54599e-005
2681 641016300.000000 583.926500 7.54599e-005
2682 641016380.000000 584.084000 7.53705e-005
2683 641016460.000000 584.234500 7.54003e-005
2684 641016540.000000 584.393500 7.54301e-005
2685 641016620.000000 584.549500 7.53705e-005
2686 641016700.000000 584.704000 7.54301e-005
2687 641016780.000000 584.859500 7.53407e-005
2688 641016860.000000 585.015000 7.53705e-005
2689 641016940.000000 585.171000 7.53705e-005
2690 641017020.000000 585.324500 7.53407e-005
2691 641017100.000000 585.480000 7.54003e-005
2692 641017180.000000 585.637500 7.53109e-005
2693 641017260.000000 585.790000 7.53407e-005
2694 641017340.000000 585.946500 7.52811e-005
2695 641017420.000000 586.102500 7.53109e-005
2696 641017500.000000 586.253500 7.53407e-005
2697 641017580.000000 586.410500 7.52811e-005
2698 641017660.000000 586.565000 7.53407e-005
2699 641017740.000000 586.717000 7.53109e-005
2700 641017820.000000 586.872500 7.52513e-005
2701 641017900.000000 587.026000 7.52513e-005
2702 641017980.000000 587.179500 7.51917e-005
2703 641018060.000000 587.336500 7.51619e-005
2704 641018140.000000 587.490000 7.51917e-005
2705 641018220.000000 587.644000 7.52215e-005
2706 641018300.000000 587.799500 7.51321e-005
2707 641018380.000000 587.956000 7.51321e-005
2708 641018460.000000 588.110500 7.51619e-005
2709 641018540.000000 588.267000 7.51321e-005
2710 641018620.000000 588.425500 7.51321e-005
2711 641018700.000000 588.578500 7.50129e-005
2712 641018780.000000 588.736000 7.50725e-005
2713 641018860.000000 588.888500 7.51619e-005
2714 641018940.000000 589.045000 7.51619e-005
2715 641019020.000000 589.204000 7.50725e-005
2716 641019100.000000 589.356500 7.50427e-005
2717 641019180.000000 589.513000 7.50427e-005
2718 641019260.000000 589.670000 7.50725e-005
2719 641019341.000000 589.824500 7.51023e-005
2720 641019420.000000 589.978500 7.51023e-005
2721 641019500.000000 590.130500 7.50129e-005
2722 641019580.000000 590.284500 7.51023e-005
2723 641019660.000000 590.442000 7.49831e-005
2724 641019740.000000 590.593500 7.50427e-005
2725 641019820.000000 590.752500 7.50129e-005
2726 641019900.000000 590.908500 7.49235e-005
2727 641019980.000000 591.063500 7.49235e-005
2728 641020060.000000 591.218500 7.49533e-005
2729 641020140.000000 591.374000 7.50427e-005
2730 641020220.000000 591.531000 7.50725e-005
2731 641020300.000000 591.683500 7.50427e-005
2732 641020380.000000 591.836500 7.50427e-005
2733 641020460.000000 591.992500 7.50129e-005
2734 641020540.000000 592.144000 7.49533e-005
2735 641020620.000000 592.299500 7.49235e-005
2736 641020700.000000 592.456500 7.48937e-005
2737 641020780.000000 592.610000 7.48937e-005
2738 641020860.000000 592.763000 7.48937e-005
2739 641020940.000000 592.919500 7.48043e-005
2740 641021020.000000 593.074500 7.48639e-005
2741 641021100.000000 593.229500 7.48341e-005
2742 641021180.000000 593.386500 7.49831e-005
2743 641021260.000000 593.543500 7.49831e-005
2744 641021340.000000 593.698000 7.49831e-005
2745 641021420.000000 593.851500 7.49533e-005
2746 641021500.000000 594.009500 7.49235e-005
2747 641021580.000000 594.162000 7.49235e-005
2748 641021660.000000 594.319000 7.49235e-005
2749 641021740.000000 594.476500 7.48937e-005
2750 641021820.000000 594.627000 7.48043e-005
2751 641021900.000000 594.785500 7.48937e-005
2752 641021980.000000 594.942500 7.48341e-005
2753 641022060.000000 595.098500 7.48043e-005
2754 641022140.000000 595.252500 7.48937e-005
2755 641022220.000000 595.405500 7.47149e-005
2756 641022300.000000 595.559000 7.48341e-005
2757 641022380.000000 595.716500 7.47745e-005
2758 641022460.000000 595.872500 7.46851e-005
2759 641022540.000000 596.029000 7.47447e-005
2760 641022620.000000 596.180500 7.47149e-005
2761 641022700.000000 596.339000 7.47745e-005
2762 641022780.000000 596.494000 7.47745e-005
2763 641022860.000000 596.645000 7.47447e-005
2764 641022940.000000 596.802500 7.47447e-005
2765 641023020.000000 596.955500 7.46255e-005
2766 641023100.000000 597.111000 7.46255e-005
2767 641023180.000000 597.262500 7.46255e-005
2768 641023260.000000 597.413500 7.46553e-005
2769 641023340.000000 597.571000 7.47149e-005
2770 641023420.000000 597.724000 7.46851e-005
2771 641023500.000000 597.877000 7.46553e-005
2772 641023580.000000 598.034000 7.46255e-005
2773 641023660.000000 598.190000 7.46851e-005
2774 641023740.000000 598.345500 7.47149e-005
2775 641023820.000000 598.500500 7.47149e-005
2776 641023900.000000 598.658000 7.47745e-005
2777 641023980.000000 598.812000 7.47447e-005
2778 641024060.000000 598.967000 7.47745e-005
2779 641024140.000000 599.124500 7.46851e-005
2780 641024220.000000 599.276500 7.47745e-005
2781 641024300.000000 599.434000 7.47745e-005
2782 641024380.000000 599.592500 7.47745e-005
2783 641024460.000000 599.744000 7.48043e-005
2784 641024540.000000 599.902500 7.47745e-005
2785 641024620.000000 600.058500 7.47447e-005
2786 641024700.000000 600.211000 7.48043e-005
2787 641024780.000000 600.368000 7.47149e-005
2788 641024860.000000 600.522000 7.48341e-005
2789 641024940.000000 600.674500 7.47447e-005
2790 641025020.000000 600.831000 7.47447e-005
2791 641025100.000000 600.986000 7.48043e-005
2792 641025180.000000 601.144000 7.48043e-005
2793 641025260.000000 601.297000 7.48043e-005
2794 641025340.000000 601.453000 7.47745e-005
2795 641025420.000000 601.605000 7.48341e-005
2796 641025500.000000 601.759500 7.47745e-005
2797 641025580.000000 601.917000 7.47447e-005
2798 641025660.000000 602.072000 7.46851e-005
2799 641025740.000000 602.223500 7.45659e-005
2800 641025820.000000 602.381000 7.46255e-005
